SpectraSuite Data File
++++++++++++++++++++++++++++++++++++
Date: Thu Nov 10 13:59:48 EET 2016
User: OO Maya
Dark Spectrum Present: No
Reference Spectrum Present: No
Number of Sampled Component Spectra: 1
Spectrometers: MAYP11278
Integration Time (usec): 2250000 (MAYP11278)
Spectra Averaged: 1 (MAYP11278)
Boxcar Smoothing: 0 (MAYP11278)
Correct for Electrical Dark: No (MAYP11278)
Strobe/Lamp Enabled: No (MAYP11278)
Correct for Detector Non-linearity: No (MAYP11278)
Correct for Stray Light: No (MAYP11278)
Number of Pixels in Processed Spectrum: 2068
>>>>>Begin Processed Spectral Data<<<<<
187,82	2282,00
188,30	2212,00
188,78	2178,00
189,26	2179,00
189,73	3777,00
190,21	3982,00
190,69	3889,00
191,17	4010,00
191,64	4113,00
192,12	3934,00
192,60	3904,00
193,07	3846,00
193,55	4016,00
194,03	3942,00
194,51	4021,00
194,98	3945,00
195,46	4073,00
195,94	3931,00
196,42	4004,00
196,89	4362,00
197,37	3995,00
197,85	3880,00
198,32	3934,00
198,80	3891,00
199,28	3986,00
199,76	4050,00
200,23	3915,00
200,71	3994,00
201,19	4075,00
201,66	4133,00
202,14	4077,00
202,62	3859,00
203,09	4052,00
203,57	3888,00
204,05	4103,00
204,53	4185,00
205,00	3935,00
205,48	3929,00
205,96	4189,00
206,43	3923,00
206,91	4025,00
207,39	4456,00
207,86	4053,00
208,34	4104,00
208,82	3968,00
209,29	4126,00
209,77	4072,00
210,25	4016,00
210,72	3996,00
211,20	4065,00
211,68	4014,00
212,15	3893,00
212,63	4327,00
213,11	4105,00
213,58	4006,00
214,06	4314,00
214,53	4067,00
215,01	4244,00
215,49	4072,00
215,96	4160,00
216,44	4106,00
216,92	4098,00
217,39	3985,00
217,87	4061,00
218,35	4178,00
218,82	3856,00
219,30	3934,00
219,77	3949,00
220,25	4036,00
220,73	4405,00
221,20	3954,00
221,68	4171,00
222,15	3971,00
222,63	4165,00
223,11	3980,00
223,58	4139,00
224,06	4063,00
224,53	3974,00
225,01	3920,00
225,49	4033,00
225,96	3944,00
226,44	4128,00
226,91	4163,00
227,39	4045,00
227,87	4200,00
228,34	4150,00
228,82	4151,00
229,29	4035,00
229,77	4070,00
230,24	4001,00
230,72	4142,00
231,20	4177,00
231,67	4086,00
232,15	4082,00
232,62	3937,00
233,10	4073,00
233,57	4107,00
234,05	4542,00
234,53	4063,00
235,00	3992,00
235,48	3955,00
235,95	3913,00
236,43	4159,00
236,90	4363,00
237,38	4019,00
237,85	4093,00
238,33	4061,00
238,80	4114,00
239,28	4073,00
239,75	3917,00
240,23	4159,00
240,71	4257,00
241,18	4080,00
241,66	4035,00
242,13	4178,00
242,61	4213,00
243,08	3858,00
243,56	3934,00
244,03	4165,00
244,51	4232,00
244,98	4047,00
245,46	4230,00
245,93	8473,00
246,41	3892,00
246,88	4033,00
247,36	4067,00
247,83	4070,00
248,31	4101,00
248,78	3859,00
249,26	4064,00
249,73	4112,00
250,21	4117,00
250,68	4275,00
251,16	4112,00
251,63	4367,00
252,10	4273,00
252,58	3993,00
253,05	4318,00
253,53	4059,00
254,00	4032,00
254,48	4058,00
254,95	4097,00
255,43	4170,00
255,90	3987,00
256,38	4127,00
256,85	4164,00
257,33	4177,00
257,80	4489,00
258,27	4104,00
258,75	4051,00
259,22	4088,00
259,70	4200,00
260,17	4314,00
260,65	4083,00
261,12	4000,00
261,59	4200,00
262,07	3999,00
262,54	4110,00
263,02	4067,00
263,49	3907,00
263,97	4189,00
264,44	4242,00
264,91	4073,00
265,39	4130,00
265,86	4127,00
266,34	4182,00
266,81	3983,00
267,28	4023,00
267,76	4128,00
268,23	4158,00
268,71	3865,00
269,18	3957,00
269,65	4022,00
270,13	4172,00
270,60	4282,00
271,08	4030,00
271,55	4139,00
272,02	3896,00
272,50	3957,00
272,97	3825,00
273,44	4088,00
273,92	4599,00
274,39	4180,00
274,87	4205,00
275,34	4024,00
275,81	4072,00
276,29	4115,00
276,76	4154,00
277,23	3943,00
277,71	4052,00
278,18	3970,00
278,65	4717,00
279,13	4037,00
279,60	4018,00
280,07	4669,00
280,55	4207,00
281,02	4578,00
281,50	4028,00
281,97	4264,00
282,44	3998,00
282,91	4036,00
283,39	4151,00
283,86	3970,00
284,33	3910,00
284,81	4194,00
285,28	4021,00
285,75	4109,00
286,23	4112,00
286,70	3872,00
287,17	4176,00
287,65	4358,00
288,12	4013,00
288,59	4174,00
289,07	3865,00
289,54	4304,00
290,01	3944,00
290,48	4131,00
290,96	4020,00
291,43	4147,00
291,90	4348,00
292,38	4008,00
292,85	4205,00
293,32	4014,00
293,79	4191,00
294,27	4165,00
294,74	4009,00
295,21	4097,00
295,69	4112,00
296,16	4332,00
296,63	4364,00
297,10	4151,00
297,58	4142,00
298,05	4141,00
298,52	4041,00
298,99	4315,00
299,47	4075,00
299,94	4156,00
300,41	3992,00
300,88	4183,00
301,36	4217,00
301,83	4185,00
302,30	3995,00
302,77	4220,00
303,25	4209,00
303,72	3969,00
304,19	4026,00
304,66	3985,00
305,13	4108,00
305,61	4185,00
306,08	4135,00
306,55	4193,00
307,02	4029,00
307,49	4085,00
307,97	4085,00
308,44	4040,00
308,91	4203,00
309,38	4224,00
309,86	4170,00
310,33	4107,00
310,80	4142,00
311,27	4024,00
311,74	4204,00
312,21	4131,00
312,69	4355,00
313,16	4029,00
313,63	4053,00
314,10	4111,00
314,57	3990,00
315,05	4008,00
315,52	4219,00
315,99	4218,00
316,46	4089,00
316,93	4218,00
317,40	4061,00
317,88	4543,00
318,35	4082,00
318,82	4074,00
319,29	3919,00
319,76	4128,00
320,23	4356,00
320,70	4234,00
321,18	4079,00
321,65	3844,00
322,12	3993,00
322,59	4355,00
323,06	4075,00
323,53	4441,00
324,00	3908,00
324,48	4152,00
324,95	4034,00
325,42	4034,00
325,89	4080,00
326,36	4059,00
326,83	4191,00
327,30	4189,00
327,77	4187,00
328,24	4101,00
328,72	4047,00
329,19	4035,00
329,66	4080,00
330,13	4002,00
330,60	4177,00
331,07	4165,00
331,54	4392,00
332,01	4009,00
332,48	4368,00
332,95	4166,00
333,43	4149,00
333,90	4313,00
334,37	4154,00
334,84	4183,00
335,31	4640,00
335,78	3944,00
336,25	4120,00
336,72	4034,00
337,19	4142,00
337,66	4000,00
338,13	4050,00
338,60	4299,00
339,07	4224,00
339,54	3968,00
340,01	3997,00
340,49	3949,00
340,96	4179,00
341,43	4249,00
341,90	4011,00
342,37	4181,00
342,84	4217,00
343,31	4124,00
343,78	4058,00
344,25	4099,00
344,72	3997,00
345,19	4077,00
345,66	4204,00
346,13	4038,00
346,60	3981,00
347,07	4331,00
347,54	4059,00
348,01	4266,00
348,48	4154,00
348,95	3921,00
349,42	4061,00
349,89	4189,00
350,36	4107,00
350,83	4015,00
351,30	4134,00
351,77	4433,00
352,24	4139,00
352,71	4047,00
353,18	4171,00
353,65	4177,00
354,12	4128,00
354,59	4225,00
355,06	4141,00
355,53	4334,00
356,00	4008,00
356,47	4316,00
356,94	3993,00
357,41	4586,00
357,88	4188,00
358,35	3985,00
358,82	4003,00
359,28	3991,00
359,75	4013,00
360,22	4172,00
360,69	4300,00
361,16	4023,00
361,63	4103,00
362,10	4098,00
362,57	4054,00
363,04	4085,00
363,51	4457,00
363,98	4199,00
364,45	4016,00
364,92	4146,00
365,39	4044,00
365,86	3972,00
366,32	4145,00
366,79	4076,00
367,26	6426,00
367,73	3850,00
368,20	3930,00
368,67	4187,00
369,14	3933,00
369,61	4199,00
370,08	4126,00
370,55	4052,00
371,02	5592,00
371,48	4130,00
371,95	3988,00
372,42	3937,00
372,89	4067,00
373,36	4102,00
373,83	3920,00
374,30	3981,00
374,77	4115,00
375,23	3896,00
375,70	4319,00
376,17	4071,00
376,64	3949,00
377,11	3941,00
377,58	4159,00
378,05	4082,00
378,51	4079,00
378,98	4092,00
379,45	4084,00
379,92	4148,00
380,39	4461,00
380,86	4114,00
381,33	4304,00
381,79	4294,00
382,26	3908,00
382,73	4136,00
383,20	4092,00
383,67	4159,00
384,14	4113,00
384,60	4865,00
385,07	4100,00
385,54	4011,00
386,01	4073,00
386,48	4384,00
386,94	3990,00
387,41	3957,00
387,88	4186,00
388,35	4115,00
388,82	4269,00
389,28	4016,00
389,75	4177,00
390,22	4142,00
390,69	4120,00
391,16	4132,00
391,62	4104,00
392,09	4147,00
392,56	4067,00
393,03	4041,00
393,50	4377,00
393,96	4059,00
394,43	4233,00
394,90	4036,00
395,37	4178,00
395,83	4848,00
396,30	3947,00
396,77	4132,00
397,24	4217,00
397,70	3946,00
398,17	4131,00
398,64	4021,00
399,11	3957,00
399,57	4246,00
400,04	3944,00
400,51	4116,00
400,98	4011,00
401,44	4148,00
401,91	4132,00
402,38	4125,00
402,84	4000,00
403,31	4300,00
403,78	4064,00
404,25	4296,00
404,71	4427,00
405,18	4274,00
405,65	4002,00
406,12	4185,00
406,58	4161,00
407,05	4344,00
407,52	4121,00
407,98	4151,00
408,45	4173,00
408,92	3971,00
409,38	4246,00
409,85	3969,00
410,32	4263,00
410,78	4000,00
411,25	4310,00
411,72	4049,00
412,18	3841,00
412,65	4160,00
413,12	4045,00
413,59	4089,00
414,05	4163,00
414,52	4315,00
414,98	4066,00
415,45	4327,00
415,92	4123,00
416,38	4108,00
416,85	4366,00
417,32	4164,00
417,78	4033,00
418,25	4112,00
418,72	4127,00
419,18	4227,00
419,65	3964,00
420,12	4213,00
420,58	4028,00
421,05	4059,00
421,51	4059,00
421,98	4155,00
422,45	4020,00
422,91	4038,00
423,38	4176,00
423,85	4155,00
424,31	4076,00
424,78	4199,00
425,24	4108,00
425,71	4296,00
426,18	4031,00
426,64	4219,00
427,11	4206,00
427,57	4191,00
428,04	3953,00
428,51	4247,00
428,97	4203,00
429,44	4103,00
429,90	4124,00
430,37	4616,00
430,83	3942,00
431,30	4004,00
431,77	4367,00
432,23	4252,00
432,70	4083,00
433,16	4048,00
433,63	4112,00
434,09	4047,00
434,56	4175,00
435,03	3939,00
435,49	4217,00
435,96	4133,00
436,42	3921,00
436,89	4242,00
437,35	4131,00
437,82	4137,00
438,28	4007,00
438,75	4069,00
439,21	4750,00
439,68	4161,00
440,14	4213,00
440,61	4268,00
441,07	4007,00
441,54	4045,00
442,00	4472,00
442,47	3985,00
442,94	4132,00
443,40	4123,00
443,87	3911,00
444,33	4348,00
444,80	4136,00
445,26	4088,00
445,73	4101,00
446,19	4144,00
446,65	4077,00
447,12	4090,00
447,58	4054,00
448,05	3997,00
448,51	4199,00
448,98	4180,00
449,44	4078,00
449,91	3973,00
450,37	3993,00
450,84	4033,00
451,30	4100,00
451,77	4209,00
452,23	3979,00
452,70	4213,00
453,16	4059,00
453,62	4159,00
454,09	4087,00
454,55	4189,00
455,02	3992,00
455,48	4112,00
455,95	4233,00
456,41	3984,00
456,88	4301,00
457,34	4083,00
457,80	4092,00
458,27	3957,00
458,73	4102,00
459,20	4136,00
459,66	4256,00
460,13	4030,00
460,59	3963,00
461,05	4316,00
461,52	4252,00
461,98	3985,00
462,45	3888,00
462,91	4284,00
463,37	4044,00
463,84	4146,00
464,30	4133,00
464,76	3921,00
465,23	4026,00
465,69	4236,00
466,16	4126,00
466,62	4139,00
467,08	4175,00
467,55	4087,00
468,01	4132,00
468,48	4121,00
468,94	4109,00
469,40	3939,00
469,87	4166,00
470,33	4144,00
470,79	4036,00
471,26	4043,00
471,72	3959,00
472,18	3982,00
472,65	4092,00
473,11	4275,00
473,57	4092,00
474,04	3996,00
474,50	4039,00
474,96	3973,00
475,43	4134,00
475,89	4082,00
476,35	4133,00
476,82	4119,00
477,28	4091,00
477,74	4309,00
478,21	4137,00
478,67	4238,00
479,13	3988,00
479,59	4382,00
480,06	4217,00
480,52	4170,00
480,98	4026,00
481,45	4097,00
481,91	4061,00
482,37	3934,00
482,84	4026,00
483,30	3968,00
483,76	4058,00
484,22	4323,00
484,69	4119,00
485,15	4089,00
485,61	3907,00
486,07	4031,00
486,54	3896,00
487,00	4133,00
487,46	3928,00
487,92	3962,00
488,39	4014,00
488,85	4090,00
489,31	4110,00
489,77	4205,00
490,24	3956,00
490,70	4130,00
491,16	3932,00
491,62	3972,00
492,09	3845,00
492,55	4210,00
493,01	4090,00
493,47	4084,00
493,94	4026,00
494,40	4030,00
494,86	3993,00
495,32	3955,00
495,78	4104,00
496,25	3992,00
496,71	4062,00
497,17	4375,00
497,63	4232,00
498,09	3976,00
498,56	4159,00
499,02	4012,00
499,48	4425,00
499,94	4074,00
500,40	3943,00
500,87	4054,00
501,33	4032,00
501,79	4185,00
502,25	4059,00
502,71	4986,00
503,17	4070,00
503,64	4123,00
504,10	4020,00
504,56	4161,00
505,02	4115,00
505,48	3929,00
505,94	4080,00
506,40	4237,00
506,87	4061,00
507,33	4151,00
507,79	4131,00
508,25	4000,00
508,71	3974,00
509,17	3856,00
509,63	4017,00
510,10	4133,00
510,56	3993,00
511,02	4285,00
511,48	4283,00
511,94	3943,00
512,40	3895,00
512,86	3962,00
513,32	4172,00
513,78	3800,00
514,25	4198,00
514,71	6033,00
515,17	3843,00
515,63	4108,00
516,09	4233,00
516,55	4211,00
517,01	4508,00
517,47	4141,00
517,93	4105,00
518,39	4676,00
518,85	4095,00
519,32	3968,00
519,78	3943,00
520,24	3946,00
520,70	4157,00
521,16	4116,00
521,62	4252,00
522,08	4032,00
522,54	3967,00
523,00	4357,00
523,46	4222,00
523,92	4047,00
524,38	4426,00
524,84	4154,00
525,30	4213,00
525,76	4257,00
526,22	4171,00
526,68	4118,00
527,14	4070,00
527,60	4030,00
528,06	4207,00
528,52	4182,00
528,98	4070,00
529,44	3984,00
529,90	4191,00
530,36	4128,00
530,82	3938,00
531,28	4256,00
531,74	4078,00
532,20	4087,00
532,66	4068,00
533,12	4137,00
533,58	4080,00
534,04	3896,00
534,50	4094,00
534,96	4028,00
535,42	4105,00
535,88	4022,00
536,34	4177,00
536,80	3939,00
537,26	4190,00
537,72	4083,00
538,18	4057,00
538,64	4343,00
539,10	4154,00
539,56	4985,00
540,02	3894,00
540,48	4379,00
540,94	4113,00
541,40	3943,00
541,86	4193,00
542,32	4141,00
542,78	4043,00
543,24	4502,00
543,69	3919,00
544,15	4445,00
544,61	4242,00
545,07	4049,00
545,53	4016,00
545,99	4244,00
546,45	4045,00
546,91	4120,00
547,37	4152,00
547,83	4119,00
548,29	4085,00
548,74	4045,00
549,20	3987,00
549,66	4443,00
550,12	4008,00
550,58	3898,00
551,04	4144,00
551,50	4066,00
551,96	4373,00
552,42	4130,00
552,87	4013,00
553,33	4164,00
553,79	4032,00
554,25	4008,00
554,71	4130,00
555,17	4091,00
555,63	4362,00
556,08	4167,00
556,54	4321,00
557,00	3877,00
557,46	4150,00
557,92	4433,00
558,38	4029,00
558,83	4064,00
559,29	3967,00
559,75	3948,00
560,21	3986,00
560,67	4100,00
561,13	4003,00
561,58	4124,00
562,04	4020,00
562,50	4016,00
562,96	4109,00
563,42	4239,00
563,87	3996,00
564,33	4069,00
564,79	4032,00
565,25	4051,00
565,71	4134,00
566,16	4242,00
566,62	4023,00
567,08	4009,00
567,54	4142,00
568,00	4239,00
568,45	4037,00
568,91	4059,00
569,37	4168,00
569,83	4101,00
570,28	4042,00
570,74	4185,00
571,20	4200,00
571,66	4084,00
572,11	4122,00
572,57	4166,00
573,03	4044,00
573,49	4001,00
573,94	4061,00
574,40	4263,00
574,86	4233,00
575,32	3975,00
575,77	4140,00
576,23	3876,00
576,69	4251,00
577,15	4035,00
577,60	4015,00
578,06	3947,00
578,52	4299,00
578,97	4066,00
579,43	3992,00
579,89	4157,00
580,34	4123,00
580,80	4070,00
581,26	4087,00
581,72	4104,00
582,17	4060,00
582,63	3905,00
583,09	4054,00
583,54	4141,00
584,00	4052,00
584,46	4153,00
584,91	4010,00
585,37	4526,00
585,83	4040,00
586,28	4074,00
586,74	4007,00
587,20	4043,00
587,65	4202,00
588,11	3939,00
588,57	4184,00
589,02	4082,00
589,48	4007,00
589,94	4136,00
590,39	4168,00
590,85	3992,00
591,30	3917,00
591,76	4346,00
592,22	4076,00
592,67	4111,00
593,13	4098,00
593,59	4213,00
594,04	4111,00
594,50	4070,00
594,95	4302,00
595,41	4044,00
595,87	3945,00
596,32	4324,00
596,78	4152,00
597,23	4292,00
597,69	4122,00
598,15	3950,00
598,60	4038,00
599,06	4324,00
599,51	4005,00
599,97	4154,00
600,43	4267,00
600,88	4146,00
601,34	4178,00
601,79	3938,00
602,25	4538,00
602,70	4002,00
603,16	4041,00
603,61	3920,00
604,07	3885,00
604,53	4117,00
604,98	4027,00
605,44	4146,00
605,89	4093,00
606,35	3913,00
606,80	4131,00
607,26	4042,00
607,71	4080,00
608,17	4196,00
608,62	4102,00
609,08	4496,00
609,53	4200,00
609,99	4026,00
610,44	3956,00
610,90	4135,00
611,35	3911,00
611,81	4391,00
612,26	4169,00
612,72	4101,00
613,17	4601,00
613,63	3893,00
614,08	3905,00
614,54	3959,00
614,99	3909,00
615,45	4023,00
615,90	4063,00
616,36	3925,00
616,81	4038,00
617,27	4060,00
617,72	4171,00
618,18	3994,00
618,63	4062,00
619,09	4050,00
619,54	4181,00
619,99	4048,00
620,45	4167,00
620,90	4258,00
621,36	4077,00
621,81	4211,00
622,27	4353,00
622,72	4211,00
623,18	4021,00
623,63	3976,00
624,08	4230,00
624,54	3927,00
624,99	4063,00
625,45	4127,00
625,90	3979,00
626,35	4099,00
626,81	4112,00
627,26	4034,00
627,72	4177,00
628,17	4201,00
628,62	3918,00
629,08	4058,00
629,53	4141,00
629,99	3958,00
630,44	4173,00
630,89	4053,00
631,35	4178,00
631,80	4156,00
632,26	4229,00
632,71	3953,00
633,16	4051,00
633,62	3985,00
634,07	4067,00
634,52	3976,00
634,98	4034,00
635,43	3995,00
635,88	3909,00
636,34	4108,00
636,79	4045,00
637,24	3946,00
637,70	4206,00
638,15	4199,00
638,60	4014,00
639,06	4066,00
639,51	3946,00
639,96	3862,00
640,42	4147,00
640,87	4243,00
641,32	3905,00
641,78	3987,00
642,23	4022,00
642,68	3874,00
643,14	3989,00
643,59	4181,00
644,04	4004,00
644,49	3914,00
644,95	4060,00
645,40	3975,00
645,85	4100,00
646,31	4045,00
646,76	4121,00
647,21	4155,00
647,66	4062,00
648,12	4155,00
648,57	3927,00
649,02	4231,00
649,47	4163,00
649,93	4779,00
650,38	3974,00
650,83	3967,00
651,28	3982,00
651,74	4124,00
652,19	3968,00
652,64	4093,00
653,09	3987,00
653,55	3971,00
654,00	4097,00
654,45	4149,00
654,90	4036,00
655,35	3973,00
655,81	4151,00
656,26	3942,00
656,71	4020,00
657,16	4117,00
657,62	4193,00
658,07	3953,00
658,52	4094,00
658,97	3990,00
659,42	4820,00
659,88	4015,00
660,33	4263,00
660,78	4028,00
661,23	3979,00
661,68	4025,00
662,13	3929,00
662,59	3830,00
663,04	4104,00
663,49	4017,00
663,94	4049,00
664,39	4033,00
664,84	3965,00
665,30	4081,00
665,75	3941,00
666,20	4107,00
666,65	4095,00
667,10	4573,00
667,55	4233,00
668,00	3945,00
668,46	4104,00
668,91	3973,00
669,36	4473,00
669,81	3816,00
670,26	3995,00
670,71	4258,00
671,16	4071,00
671,61	4340,00
672,06	4489,00
672,52	4062,00
672,97	4100,00
673,42	4234,00
673,87	4621,00
674,32	4129,00
674,77	4163,00
675,22	3867,00
675,67	3978,00
676,12	4099,00
676,57	4055,00
677,02	4002,00
677,47	4002,00
677,93	4495,00
678,38	4010,00
678,83	4013,00
679,28	4141,00
679,73	4015,00
680,18	4092,00
680,63	4104,00
681,08	3827,00
681,53	3802,00
681,98	4042,00
682,43	4067,00
682,88	4165,00
683,33	4128,00
683,78	4094,00
684,23	4224,00
684,68	4154,00
685,13	4169,00
685,58	4134,00
686,03	4069,00
686,48	3907,00
686,93	4060,00
687,38	3967,00
687,83	4097,00
688,28	4008,00
688,73	4512,00
689,18	4141,00
689,63	3863,00
690,08	4008,00
690,53	4050,00
690,98	3879,00
691,43	4073,00
691,88	3876,00
692,33	4058,00
692,78	4024,00
693,23	4185,00
693,68	4077,00
694,13	4047,00
694,58	4077,00
695,03	4882,00
695,48	4087,00
695,93	4106,00
696,38	4394,00
696,83	4059,00
697,28	3981,00
697,72	4128,00
698,17	3943,00
698,62	4219,00
699,07	4199,00
699,52	3984,00
699,97	3997,00
700,42	4163,00
700,87	4176,00
701,32	4743,00
701,77	3940,00
702,22	4327,00
702,67	4051,00
703,11	3989,00
703,56	4088,00
704,01	4045,00
704,46	4014,00
704,91	4281,00
705,36	4253,00
705,81	4236,00
706,26	3919,00
706,70	4169,00
707,15	4044,00
707,60	3983,00
708,05	4098,00
708,50	4219,00
708,95	4097,00
709,40	3970,00
709,84	4057,00
710,29	4014,00
710,74	4025,00
711,19	4152,00
711,64	4088,00
712,09	4098,00
712,53	3973,00
712,98	4383,00
713,43	4033,00
713,88	4074,00
714,33	4270,00
714,78	4212,00
715,22	4043,00
715,67	4097,00
716,12	3977,00
716,57	3985,00
717,02	3891,00
717,46	3878,00
717,91	4117,00
718,36	4343,00
718,81	3956,00
719,26	3915,00
719,70	4075,00
720,15	4002,00
720,60	3964,00
721,05	4075,00
721,49	3978,00
721,94	4105,00
722,39	4057,00
722,84	3930,00
723,28	3855,00
723,73	4048,00
724,18	3869,00
724,63	4129,00
725,07	3874,00
725,52	3986,00
725,97	4018,00
726,42	4091,00
726,86	4335,00
727,31	3904,00
727,76	4283,00
728,21	4096,00
728,65	4051,00
729,10	4272,00
729,55	3953,00
729,99	4222,00
730,44	3935,00
730,89	4025,00
731,33	4143,00
731,78	4110,00
732,23	4140,00
732,68	3934,00
733,12	4185,00
733,57	4097,00
734,02	3976,00
734,46	4174,00
734,91	4143,00
735,36	4095,00
735,80	4561,00
736,25	3964,00
736,70	4077,00
737,14	4214,00
737,59	4182,00
738,04	4059,00
738,48	3985,00
738,93	4079,00
739,37	3929,00
739,82	4265,00
740,27	4176,00
740,71	3966,00
741,16	4131,00
741,61	4179,00
742,05	4027,00
742,50	4074,00
742,94	3946,00
743,39	3971,00
743,84	4047,00
744,28	4254,00
744,73	4207,00
745,18	4109,00
745,62	4203,00
746,07	4268,00
746,51	3839,00
746,96	3903,00
747,40	3893,00
747,85	4132,00
748,30	4070,00
748,74	3993,00
749,19	4140,00
749,63	4574,00
750,08	4029,00
750,52	4050,00
750,97	3900,00
751,42	4000,00
751,86	4046,00
752,31	4046,00
752,75	4354,00
753,20	3970,00
753,64	4018,00
754,09	3860,00
754,53	4003,00
754,98	3876,00
755,42	4085,00
755,87	4050,00
756,31	4225,00
756,76	4008,00
757,20	4297,00
757,65	4062,00
758,09	4028,00
758,54	4003,00
758,98	4064,00
759,43	3904,00
759,87	4048,00
760,32	4126,00
760,76	4053,00
761,21	4136,00
761,65	4287,00
762,10	4003,00
762,54	3919,00
762,99	3943,00
763,43	4197,00
763,88	4051,00
764,32	3928,00
764,77	3960,00
765,21	4093,00
765,66	3905,00
766,10	3892,00
766,54	3991,00
766,99	4048,00
767,43	4127,00
767,88	4161,00
768,32	4083,00
768,77	4018,00
769,21	4344,00
769,66	3937,00
770,10	4042,00
770,54	3941,00
770,99	3896,00
771,43	4127,00
771,88	4039,00
772,32	4209,00
772,76	3874,00
773,21	3990,00
773,65	3986,00
774,10	3838,00
774,54	4063,00
774,98	3924,00
775,43	4092,00
775,87	4038,00
776,31	3925,00
776,76	3996,00
777,20	3990,00
777,65	4114,00
778,09	4153,00
778,53	3985,00
778,98	4055,00
779,42	4531,00
779,86	4272,00
780,31	4050,00
780,75	4206,00
781,19	4067,00
781,64	3934,00
782,08	4074,00
782,52	3913,00
782,97	3983,00
783,41	4123,00
783,85	4180,00
784,30	4014,00
784,74	4022,00
785,18	3972,00
785,63	3980,00
786,07	4144,00
786,51	4215,00
786,95	4251,00
787,40	3992,00
787,84	3991,00
788,28	4075,00
788,73	4421,00
789,17	4003,00
789,61	3979,00
790,05	4025,00
790,50	3937,00
790,94	3973,00
791,38	4229,00
791,82	4003,00
792,27	4016,00
792,71	3955,00
793,15	4775,00
793,59	4193,00
794,04	4120,00
794,48	4099,00
794,92	4052,00
795,36	3933,00
795,81	4147,00
796,25	4020,00
796,69	4048,00
797,13	3963,00
797,57	3872,00
798,02	4027,00
798,46	4217,00
798,90	4106,00
799,34	3940,00
799,79	4294,00
800,23	4103,00
800,67	3971,00
801,11	4078,00
801,55	4124,00
801,99	3927,00
802,44	4174,00
802,88	4341,00
803,32	4141,00
803,76	4072,00
804,20	4023,00
804,64	3955,00
805,09	4308,00
805,53	4420,00
805,97	4388,00
806,41	4157,00
806,85	4384,00
807,29	4000,00
807,74	4121,00
808,18	3928,00
808,62	4098,00
809,06	4063,00
809,50	3999,00
809,94	3914,00
810,38	4129,00
810,82	4324,00
811,27	4656,00
811,71	3970,00
812,15	3975,00
812,59	4136,00
813,03	4391,00
813,47	4184,00
813,91	4109,00
814,35	4205,00
814,79	4126,00
815,23	4091,00
815,67	4009,00
816,12	3928,00
816,56	3999,00
817,00	4142,00
817,44	4100,00
817,88	4189,00
818,32	3984,00
818,76	4163,00
819,20	4228,00
819,64	4020,00
820,08	4175,00
820,52	3975,00
820,96	4089,00
821,40	3959,00
821,84	4261,00
822,28	3964,00
822,72	4119,00
823,16	4103,00
823,60	3948,00
824,04	4076,00
824,48	4061,00
824,92	4117,00
825,36	4155,00
825,80	3926,00
826,24	4000,00
826,68	3834,00
827,12	4117,00
827,56	4193,00
828,00	4251,00
828,44	3964,00
828,88	4213,00
829,32	4119,00
829,76	3973,00
830,20	4289,00
830,64	4022,00
831,08	4464,00
831,52	4204,00
831,96	4168,00
832,40	3888,00
832,84	4032,00
833,28	4060,00
833,72	4263,00
834,16	4183,00
834,60	4082,00
835,04	4007,00
835,48	4217,00
835,91	4029,00
836,35	4076,00
836,79	4006,00
837,23	4244,00
837,67	3925,00
838,11	3967,00
838,55	4093,00
838,99	4030,00
839,43	4332,00
839,87	4469,00
840,30	4142,00
840,74	4248,00
841,18	3899,00
841,62	3994,00
842,06	3926,00
842,50	3972,00
842,94	4144,00
843,38	4059,00
843,81	4189,00
844,25	4042,00
844,69	3980,00
845,13	4155,00
845,57	4059,00
846,01	4144,00
846,45	3965,00
846,88	3970,00
847,32	4033,00
847,76	4003,00
848,20	4022,00
848,64	4005,00
849,08	4173,00
849,51	4266,00
849,95	4151,00
850,39	3990,00
850,83	4160,00
851,27	3986,00
851,70	4101,00
852,14	4198,00
852,58	4005,00
853,02	3989,00
853,46	4205,00
853,89	3860,00
854,33	4203,00
854,77	3892,00
855,21	3929,00
855,65	4194,00
856,08	4281,00
856,52	4074,00
856,96	4096,00
857,40	4084,00
857,83	3894,00
858,27	4289,00
858,71	3848,00
859,15	3916,00
859,58	4044,00
860,02	4032,00
860,46	4077,00
860,89	4170,00
861,33	3934,00
861,77	4054,00
862,21	4170,00
862,64	3971,00
863,08	4045,00
863,52	4125,00
863,95	3937,00
864,39	4057,00
864,83	4029,00
865,27	3894,00
865,70	4027,00
866,14	3881,00
866,58	4132,00
867,01	3914,00
867,45	4117,00
867,89	4006,00
868,32	3980,00
868,76	4186,00
869,20	4009,00
869,63	4291,00
870,07	4476,00
870,51	3909,00
870,94	4073,00
871,38	4050,00
871,82	3965,00
872,25	4075,00
872,69	4199,00
873,13	4018,00
873,56	4181,00
874,00	4169,00
874,43	4048,00
874,87	3921,00
875,31	4255,00
875,74	3839,00
876,18	4104,00
876,61	4035,00
877,05	4027,00
877,49	4031,00
877,92	4047,00
878,36	4100,00
878,79	4032,00
879,23	4331,00
879,67	3946,00
880,10	3888,00
880,54	4006,00
880,97	4085,00
881,41	4159,00
881,84	4010,00
882,28	3994,00
882,72	4011,00
883,15	4051,00
883,59	3891,00
884,02	4101,00
884,46	4094,00
884,89	4070,00
885,33	4253,00
885,76	3937,00
886,20	3940,00
886,63	4339,00
887,07	3946,00
887,50	3921,00
887,94	4078,00
888,37	3952,00
888,81	4596,00
889,24	3888,00
889,68	4235,00
890,11	3931,00
890,55	4173,00
890,98	4152,00
891,42	3914,00
891,85	3929,00
892,29	3988,00
892,72	3889,00
893,16	3971,00
893,59	4091,00
894,03	3978,00
894,46	4175,00
894,90	3998,00
895,33	3958,00
895,77	4024,00
896,20	4113,00
896,63	3944,00
897,07	3964,00
897,50	3946,00
897,94	4049,00
898,37	4172,00
898,81	3976,00
899,24	4014,00
899,68	3938,00
900,11	4194,00
900,54	4109,00
900,98	4019,00
901,41	4356,00
901,85	4389,00
902,28	3952,00
902,71	3983,00
903,15	4323,00
903,58	4011,00
904,02	4136,00
904,45	3985,00
904,88	3997,00
905,32	3900,00
905,75	4234,00
906,18	4132,00
906,62	4221,00
907,05	4103,00
907,48	4007,00
907,92	4123,00
908,35	4290,00
908,79	3976,00
909,22	3917,00
909,65	4078,00
910,09	4102,00
910,52	3986,00
910,95	4007,00
911,38	3978,00
911,82	4072,00
912,25	4003,00
912,68	4096,00
913,12	4073,00
913,55	4005,00
913,98	3884,00
914,42	3937,00
914,85	4007,00
915,28	3957,00
915,72	4200,00
916,15	3993,00
916,58	4184,00
917,01	3936,00
917,45	4179,00
917,88	3910,00
918,31	4011,00
918,74	4035,00
919,18	4162,00
919,61	4157,00
920,04	4031,00
920,47	4292,00
920,91	4126,00
921,34	3982,00
921,77	3949,00
922,20	3887,00
922,64	4060,00
923,07	4283,00
923,50	4140,00
923,93	3882,00
924,37	4152,00
924,80	3925,00
925,23	4137,00
925,66	4376,00
926,09	3945,00
926,53	4148,00
926,96	3896,00
927,39	4417,00
927,82	4065,00
928,25	3893,00
928,69	4165,00
929,12	3970,00
929,55	4105,00
929,98	4205,00
930,41	3909,00
930,84	4096,00
931,28	3838,00
931,71	4310,00
932,14	4178,00
932,57	4519,00
933,00	4011,00
933,43	4188,00
933,86	4182,00
934,30	4100,00
934,73	4085,00
935,16	3855,00
935,59	4067,00
936,02	3944,00
936,45	4068,00
936,88	3918,00
937,31	4126,00
937,75	3972,00
938,18	4013,00
938,61	4137,00
939,04	3864,00
939,47	4090,00
939,90	4241,00
940,33	4427,00
940,76	3913,00
941,19	4213,00
941,62	3930,00
942,05	3943,00
942,48	4159,00
942,91	3906,00
943,35	3885,00
943,78	4144,00
944,21	4161,00
944,64	4088,00
945,07	4080,00
945,50	4061,00
945,93	4061,00
946,36	4223,00
946,79	4057,00
947,22	4060,00
947,65	4106,00
948,08	3912,00
948,51	3917,00
948,94	3896,00
949,37	4488,00
949,80	4271,00
950,23	4015,00
950,66	3945,00
951,09	4076,00
951,52	3845,00
951,95	4166,00
952,38	4002,00
952,81	4369,00
953,24	3888,00
953,67	3952,00
954,10	3954,00
954,53	3964,00
954,96	3991,00
955,39	4113,00
955,82	3901,00
956,25	4120,00
956,68	4544,00
957,11	3896,00
957,53	4096,00
957,96	4081,00
958,39	4004,00
958,82	3912,00
959,25	3974,00
959,68	3797,00
960,11	4076,00
960,54	4094,00
960,97	4085,00
961,40	4168,00
961,83	4146,00
962,26	3970,00
962,68	4049,00
963,11	3997,00
963,54	4025,00
963,97	4030,00
964,40	3945,00
964,83	4137,00
965,26	3964,00
965,69	4063,00
966,11	4131,00
966,54	3941,00
966,97	3976,00
967,40	4221,00
967,83	4758,00
968,26	4164,00
968,69	4002,00
969,11	4117,00
969,54	3892,00
969,97	3972,00
970,40	4115,00
970,83	4014,00
971,26	4095,00
971,68	3894,00
972,11	3967,00
972,54	4035,00
972,97	4144,00
973,40	4007,00
973,82	4198,00
974,25	4023,00
974,68	3971,00
975,11	3928,00
975,54	3919,00
975,96	4064,00
976,39	3920,00
976,82	4125,00
977,25	4037,00
977,67	4047,00
978,10	4031,00
978,53	4028,00
978,96	4180,00
979,38	4169,00
979,81	3937,00
980,24	4051,00
980,67	4220,00
981,09	4034,00
981,52	4031,00
981,95	3977,00
982,38	4021,00
982,80	3977,00
983,23	4238,00
983,66	4155,00
984,08	3919,00
984,51	3834,00
984,94	4057,00
985,37	4115,00
985,79	4002,00
986,22	3960,00
986,65	4107,00
987,07	4067,00
987,50	4090,00
987,93	4027,00
988,35	4058,00
988,78	4034,00
989,21	4032,00
989,63	4112,00
990,06	4021,00
990,49	4070,00
990,91	4334,00
991,34	4025,00
991,77	3906,00
992,19	4004,00
992,62	3957,00
993,05	3993,00
993,47	4127,00
993,90	4138,00
994,32	4081,00
994,75	4051,00
995,18	3884,00
995,60	3921,00
996,03	3865,00
996,45	4145,00
996,88	4211,00
997,31	3986,00
997,73	4120,00
998,16	3941,00
998,58	4288,00
999,01	4022,00
999,44	4112,00
999,86	4271,00
1000,29	3930,00
1000,71	4050,00
1001,14	4130,00
1001,56	4031,00
1001,99	4121,00
1002,41	4015,00
1002,84	4174,00
1003,27	3942,00
1003,69	4085,00
1004,12	4074,00
1004,54	4242,00
1004,97	3983,00
1005,39	3884,00
1005,82	4136,00
1006,24	4005,00
1006,67	3924,00
1007,09	3889,00
1007,52	3999,00
1007,94	3934,00
1008,37	4671,00
1008,79	4212,00
1009,22	4212,00
1009,64	4094,00
1010,07	4117,00
1010,49	4210,00
1010,92	4023,00
1011,34	4193,00
1011,77	4040,00
1012,19	4115,00
1012,62	4061,00
1013,04	3966,00
1013,46	4210,00
1013,89	3851,00
1014,31	4110,00
1014,74	3955,00
1015,16	4035,00
1015,59	3899,00
1016,01	4071,00
1016,44	3952,00
1016,86	6513,00
1017,28	4020,00
1017,71	3880,00
1018,13	4495,00
1018,56	4203,00
1018,98	4140,00
1019,40	4017,00
1019,83	4011,00
1020,25	4111,00
1020,68	4101,00
1021,10	4132,00
1021,52	4003,00
1021,95	4642,00
1022,37	4158,00
1022,79	4179,00
1023,22	4170,00
1023,64	4045,00
1024,07	4070,00
1024,49	4146,00
1024,91	3966,00
1025,34	3978,00
1025,76	4362,00
1026,18	4136,00
1026,61	4132,00
1027,03	4094,00
1027,45	4083,00
1027,88	3975,00
1028,30	4447,00
1028,72	4050,00
1029,15	4052,00
1029,57	4107,00
1029,99	4271,00
1030,41	3916,00
1030,84	4096,00
1031,26	4146,00
1031,68	4029,00
1032,11	4201,00
1032,53	3951,00
1032,95	3943,00
1033,37	4122,00
1033,80	4161,00
1034,22	4009,00
1034,64	4301,00
1035,06	3954,00
1035,49	3967,00
1035,91	4073,00
1036,33	3886,00
1036,75	4132,00
1037,18	4212,00
1037,60	4195,00
1038,02	4175,00
1038,44	4290,00
1038,87	4019,00
1039,29	4030,00
1039,71	4134,00
1040,13	3965,00
1040,55	4263,00
1040,98	4264,00
1041,40	4128,00
1041,82	4199,00
1042,24	4037,00
1042,66	4195,00
1043,09	3956,00
1043,51	3985,00
1043,93	4003,00
1044,35	3872,00
1044,77	4055,00
1045,20	4160,00
1045,62	3952,00
1046,04	4107,00
1046,46	4238,00
1046,88	3952,00
1047,30	4211,00
1047,72	4157,00
1048,15	4161,00
1048,57	4023,00
1048,99	3997,00
1049,41	4154,00
1049,83	4174,00
1050,25	4339,00
1050,67	4235,00
1051,09	4117,00
1051,52	4179,00
1051,94	3816,00
1052,36	4047,00
1052,78	3876,00
1053,20	4062,00
1053,62	3927,00
1054,04	4140,00
1054,46	4131,00
1054,88	4374,00
1055,30	4189,00
1055,72	4173,00
1056,14	4086,00
1056,57	4736,00
1056,99	3956,00
1057,41	4108,00
1057,83	4161,00
1058,25	4039,00
1058,67	3990,00
1059,09	3953,00
1059,51	4179,00
1059,93	4109,00
1060,35	3993,00
1060,77	4153,00
1061,19	4265,00
1061,61	4066,00
1062,03	4052,00
1062,45	3973,00
1062,87	4187,00
1063,29	4254,00
1063,71	4079,00
1064,13	3964,00
1064,55	3891,00
1064,97	4233,00
1065,39	4071,00
1065,81	4069,00
1066,23	4100,00
1066,65	4025,00
1067,07	4336,00
1067,49	4097,00
1067,91	3968,00
1068,33	3898,00
1068,75	4215,00
1069,17	4272,00
1069,59	4167,00
1070,00	4035,00
1070,42	4144,00
1070,84	4023,00
1071,26	3919,00
1071,68	3921,00
1072,10	4134,00
1072,52	4035,00
1072,94	3925,00
1073,36	3984,00
1073,78	4003,00
1074,20	4087,00
1074,62	4005,00
1075,03	3989,00
1075,45	4073,00
1075,87	4210,00
1076,29	3988,00
1076,71	4169,00
1077,13	4325,00
1077,55	3817,00
1077,97	4052,00
1078,38	3980,00
1078,80	4026,00
1079,22	4145,00
1079,64	4064,00
1080,06	3995,00
1080,48	4148,00
1080,89	4086,00
1081,31	3979,00
1081,73	4096,00
1082,15	4060,00
1082,57	4168,00
1082,99	4056,00
1083,40	4036,00
1083,82	4249,00
1084,24	3942,00
1084,66	4033,00
1085,08	4168,00
1085,49	3809,00
1085,91	4173,00
1086,33	8499,00
1086,75	4101,00
1087,17	3970,00
1087,58	3984,00
1088,00	4010,00
1088,42	4165,00
1088,84	4071,00
1089,25	3895,00
1089,67	4060,00
1090,09	4022,00
1090,51	3952,00
1090,92	4165,00
1091,34	3995,00
1091,76	4091,00
1092,18	4045,00
1092,59	4010,00
1093,01	4018,00
1093,43	4055,00
1093,84	3982,00
1094,26	4041,00
1094,68	4105,00
1095,10	3905,00
1095,51	4050,00
1095,93	3961,00
1096,35	4151,00
1096,76	4145,00
1097,18	4184,00
1097,60	4063,00
1098,01	4005,00
1098,43	3951,00
1098,85	3986,00
1099,26	4025,00
1099,68	4053,00
1100,10	3907,00
1100,51	3960,00
1100,93	4052,00
1101,35	4072,00
1101,76	4063,00
1102,18	5071,00
1102,60	4238,00
1103,01	3798,00
1103,43	4034,00
1103,84	4023,00
1104,26	3921,00
1104,68	4018,00
1105,09	3758,00
1105,51	3866,00
1105,92	4141,00
1106,34	3849,00
1106,76	4132,00
1107,17	4043,00
1107,59	4078,00
1108,00	3835,00
1108,42	3957,00
1108,83	3825,00
1109,25	3960,00
1109,67	3852,00
1110,08	3843,00
1110,50	3792,00
1110,91	3921,00
1111,33	3878,00
1111,74	3850,00
1112,16	3952,00
1112,57	4024,00
1112,99	3854,00
1113,41	3980,00
1113,82	3891,00
1114,24	4002,00
1114,65	3927,00
1115,07	3871,00
1115,48	3797,00
1115,90	2144,00
1116,31	2179,00
1116,73	2181,00
1117,14	2181,00
>>>>>End Processed Spectral Data<<<<<
