SpectraSuite Data File
++++++++++++++++++++++++++++++++++++
Date: Tue Oct 11 14:31:33 EEST 2016
User: OO Maya
Dark Spectrum Present: No
Reference Spectrum Present: No
Number of Sampled Component Spectra: 1
Spectrometers: MAYP11278
Integration Time (usec): 1600000 (MAYP11278)
Spectra Averaged: 3 (MAYP11278)
Boxcar Smoothing: 0 (MAYP11278)
Correct for Electrical Dark: No (MAYP11278)
Strobe/Lamp Enabled: No (MAYP11278)
Correct for Detector Non-linearity: Yes (MAYP11278)
Correct for Stray Light: No (MAYP11278)
Number of Pixels in Processed Spectrum: 2068
>>>>>Begin Processed Spectral Data<<<<<
187,82	2260,83
188,30	2193,32
188,78	2161,06
189,26	2163,72
189,73	2856,49
190,21	2962,26
190,69	2968,91
191,17	3015,47
191,64	3070,68
192,12	3007,49
192,60	3005,49
193,07	2959,93
193,55	3030,77
194,03	3031,11
194,51	3033,43
194,98	3018,47
195,46	3097,63
195,94	2989,20
196,42	3026,45
196,89	3206,72
197,37	3020,79
197,85	2982,21
198,32	3023,12
198,80	2983,54
199,28	3057,71
199,76	3083,32
200,23	3006,16
200,71	2996,85
201,19	3085,98
201,66	3086,65
202,14	3079,67
202,62	2955,94
203,09	3076,01
203,57	2981,22
204,05	3089,98
204,53	3119,91
205,00	3016,80
205,48	2977,56
205,96	3123,57
206,43	3017,47
206,91	3054,39
207,39	3208,38
207,86	3034,43
208,34	3072,68
208,82	3042,41
209,29	3093,63
209,77	3063,37
210,25	3034,10
210,72	3042,41
211,20	3086,65
211,68	3054,39
212,15	2984,21
212,63	3173,46
213,11	3092,30
213,58	3028,44
214,06	3194,75
214,53	3059,71
215,01	3138,87
215,49	3074,68
215,96	3110,93
216,44	3098,62
216,92	3085,65
217,39	3011,48
217,87	3054,72
218,35	3143,86
218,82	2972,57
219,30	3006,16
219,77	2992,86
220,25	3035,43
220,73	3194,75
221,20	3028,11
221,68	3115,92
222,15	3001,50
222,63	3105,61
223,11	3009,82
223,58	3095,30
224,06	3043,74
224,53	3010,48
225,01	2984,54
225,49	3028,44
225,96	2994,52
226,44	3038,42
226,91	3104,28
227,39	3030,77
227,87	3123,24
228,34	3082,99
228,82	3081,99
229,29	3021,13
229,77	3057,71
230,24	3015,14
230,72	3092,30
231,20	3131,55
231,67	3056,05
232,15	3051,39
232,62	2989,86
233,10	3062,70
233,57	3072,68
234,05	3303,51
234,53	3071,35
235,00	3024,45
235,48	3024,45
235,95	2993,19
236,43	3121,91
236,90	3194,75
237,38	3020,79
237,85	3073,35
238,33	3057,38
238,80	3063,04
239,28	3046,74
239,75	2986,54
240,23	3104,61
240,71	3140,20
241,18	3077,67
241,66	3042,41
242,13	3119,25
242,61	3137,87
243,08	2982,55
243,56	3001,17
244,03	3100,62
244,51	3143,86
244,98	3044,08
245,46	3159,16
245,93	6475,66
246,41	2959,93
246,88	3072,35
247,36	3067,03
247,83	3087,98
248,31	3080,33
248,78	2985,54
249,26	3083,99
249,73	3123,90
250,21	3090,64
250,68	3175,12
251,16	3081,33
251,63	3198,74
252,10	3165,48
252,58	3050,73
253,05	3152,17
253,53	3085,65
254,00	3058,05
254,48	3064,37
254,95	3083,32
255,43	3104,61
255,90	3017,47
256,38	3091,97
256,85	3124,23
257,33	3127,89
257,80	3282,22
258,27	3075,01
258,75	3050,40
259,22	3093,63
259,70	3127,56
260,17	3186,10
260,65	3072,68
261,12	3022,79
261,59	3158,16
262,07	3036,76
262,54	3099,95
263,02	3081,00
263,49	2999,51
263,97	3110,60
264,44	3137,54
264,91	3045,07
265,39	3061,04
265,86	3106,27
266,34	3112,93
266,81	3037,09
267,28	3078,67
267,76	3129,22
268,23	3116,25
268,71	2984,54
269,18	3033,10
269,65	3058,38
270,13	3125,90
270,60	3165,15
271,08	3070,35
271,55	3090,97
272,02	2983,21
272,50	3014,14
272,97	2967,91
273,44	3076,67
273,92	3339,10
274,39	3133,21
274,87	3159,82
275,34	3062,37
275,81	3078,67
276,29	3100,95
276,76	3136,21
277,23	2992,86
277,71	3063,70
278,18	3033,43
278,65	3420,26
279,13	3059,04
279,60	3054,72
280,07	3368,37
280,55	3142,86
281,02	3339,10
281,50	3047,74
281,97	3168,47
282,44	3063,04
282,91	3075,67
283,39	3120,91
283,86	3047,74
284,33	3017,47
284,81	3132,88
285,28	3072,02
285,75	3113,59
286,23	3099,29
286,70	3026,45
287,17	3126,90
287,65	3184,10
288,12	3073,01
288,59	3120,91
289,07	2966,91
289,54	3192,75
290,01	3044,41
290,48	3110,26
290,96	3048,40
291,43	3129,22
291,90	3238,98
292,38	3032,44
292,85	3166,48
293,32	3068,69
293,79	3136,87
294,27	3122,90
294,74	3068,36
295,21	3090,97
295,69	3121,24
296,16	3208,72
296,63	3198,07
297,10	3118,25
297,58	3117,91
298,05	3131,22
298,52	3076,34
298,99	3226,68
299,47	3107,27
299,94	3124,23
300,41	3065,70
300,88	3163,15
301,36	3186,76
301,83	3156,50
302,30	3068,36
302,77	3156,50
303,25	3180,45
303,72	3063,70
304,19	3127,56
304,66	3085,65
305,13	3145,52
305,61	3176,79
306,08	3182,77
306,55	3215,04
307,02	3206,06
307,49	3206,39
307,97	3274,57
308,44	3251,29
308,91	3355,07
309,38	3394,32
309,86	3406,96
310,33	3436,56
310,80	3551,99
311,27	3531,36
311,74	3670,41
312,21	3655,11
312,69	3861,35
313,16	3704,01
313,63	3768,21
314,10	3862,02
314,57	3839,40
315,05	3915,58
315,52	4019,38
315,99	4028,36
316,46	4137,49
316,93	4339,78
317,40	4357,09
317,88	4551,09
318,35	4412,32
318,82	4540,77
319,29	4499,84
319,76	4741,78
320,23	4986,08
320,70	4936,82
321,18	4867,25
321,65	4735,12
322,12	4778,06
322,59	4902,20
323,06	4838,30
323,53	5214,79
324,00	5086,28
324,48	5236,76
324,95	5342,30
325,42	5546,43
325,89	5863,18
326,36	6024,76
326,83	6202,36
327,30	6281,01
327,77	6259,35
328,24	6268,34
328,72	6416,99
329,19	6584,68
329,66	6701,71
330,13	6487,66
330,60	6321,67
331,07	6108,39
331,54	6162,04
332,01	6100,39
332,48	6486,66
332,95	6587,01
333,43	6658,36
333,90	6811,09
334,37	6923,82
334,84	7228,42
335,31	7679,40
335,78	7315,19
336,25	6970,52
336,72	6753,40
337,19	6768,07
337,66	6923,49
338,13	7099,29
338,60	7349,56
339,07	7304,84
339,54	7258,45
340,01	7431,34
340,49	7348,23
340,96	7321,19
341,43	7390,95
341,90	7407,31
342,37	7534,16
342,84	7541,50
343,31	7419,66
343,78	6995,54
344,25	6748,06
344,72	7089,28
345,19	7407,64
345,66	7382,61
346,13	7237,43
346,60	7333,54
347,07	7530,15
347,54	7249,78
348,01	7447,36
348,48	7406,30
348,95	7309,85
349,42	7476,07
349,89	7831,03
350,36	7981,36
350,83	7840,72
351,30	7777,26
351,77	7853,08
352,24	7692,43
352,71	7622,97
353,18	8023,13
353,65	8263,42
354,12	8303,87
354,59	8288,83
355,06	8209,94
355,53	8036,49
356,00	7740,52
356,47	7525,14
356,94	7041,91
357,41	7378,27
357,88	7144,33
358,35	6805,75
358,82	7195,05
359,28	7876,46
359,75	8110,34
360,22	8088,29
360,69	7775,25
361,16	7651,69
361,63	7812,33
362,10	8031,15
362,57	8362,72
363,04	8293,84
363,51	8487,78
363,98	8635,95
364,45	8531,59
364,92	8711,89
365,39	9121,58
365,86	9363,75
366,32	9432,10
366,79	9292,39
367,26	10487,24
367,73	9173,49
368,20	9072,02
368,67	9313,83
369,14	9459,91
369,61	9689,86
370,08	9594,31
370,55	9207,31
371,02	10652,21
371,48	9477,34
371,95	8972,26
372,42	8785,84
372,89	8898,62
373,36	8529,91
373,83	8464,70
374,30	8758,73
374,77	8821,98
375,23	9293,06
375,70	10014,53
376,17	9957,83
376,64	10078,29
377,11	10557,79
377,58	11025,09
378,05	11278,14
378,51	10990,78
378,98	10510,42
379,45	10185,69
379,92	10267,27
380,39	10820,96
380,86	10564,85
381,33	10064,19
381,79	9394,24
382,26	8774,79
382,73	8654,01
383,20	8700,85
383,67	9070,02
384,14	9668,06
384,60	10859,29
385,07	10675,40
385,54	10475,82
386,01	10333,41
386,48	11000,54
386,94	10784,98
387,41	10896,61
387,88	11283,19
388,35	11434,37
388,82	11832,30
389,28	12612,62
389,75	13239,30
390,22	13200,03
390,69	13250,47
391,16	13317,50
391,62	12737,99
392,09	11913,56
392,56	11050,66
393,03	10014,87
393,50	10154,81
393,96	11493,98
394,43	12897,57
394,90	13439,08
395,37	13693,89
395,83	13682,03
396,30	12280,97
396,77	11756,79
397,24	13106,29
397,70	15660,53
398,17	17416,03
398,64	18235,34
399,11	18923,70
399,57	19515,80
400,04	19780,99
400,51	20063,66
400,98	20404,01
401,44	20965,77
401,91	21066,31
402,38	21116,93
402,84	20942,55
403,31	20756,83
403,78	21172,76
404,25	21203,98
404,71	20816,07
405,18	21252,19
405,65	21097,86
406,12	20987,26
406,58	21018,46
407,05	21812,17
407,52	21924,76
407,98	22190,73
408,45	22627,13
408,92	22893,95
409,38	22915,55
409,85	22074,58
410,32	22179,25
410,78	23331,16
411,25	24294,50
411,72	24581,72
412,18	24429,86
412,65	24670,27
413,12	24266,52
413,59	24560,72
414,05	25001,89
414,52	24988,58
414,98	25117,87
415,45	25163,78
415,92	25292,77
416,38	25707,35
416,85	25470,55
417,32	24750,44
417,78	24858,63
418,25	25070,56
418,72	25013,80
419,18	25553,68
419,65	25572,27
420,12	25567,01
420,58	26155,37
421,05	26556,73
421,51	26272,01
421,98	26321,56
422,45	25544,56
422,91	25329,93
423,38	26132,18
423,85	26066,85
424,31	26488,88
424,78	26427,36
425,24	26177,85
425,71	26319,45
426,18	26030,33
426,64	26553,57
427,11	25670,86
427,57	25436,88
428,04	25581,04
428,51	25149,06
428,97	23894,98
429,44	23383,50
429,90	22618,77
430,37	23040,33
430,83	23385,59
431,30	25224,76
431,77	28200,83
432,23	28312,02
432,70	27312,32
433,16	28332,85
433,63	28404,52
434,09	27351,78
434,56	28810,40
435,03	29991,22
435,49	30219,45
435,96	30751,47
436,42	30812,87
436,89	30526,18
437,35	29572,26
437,82	29519,52
438,28	29049,01
438,75	29114,78
439,21	30481,13
439,68	31215,53
440,14	31489,84
440,61	31579,07
441,07	32612,93
441,54	33138,73
442,00	33810,10
442,47	33759,03
442,94	33975,86
443,40	33904,05
443,87	34086,28
444,33	34204,58
444,80	34193,50
445,26	34034,10
445,73	33541,22
446,19	34140,24
446,65	35305,09
447,12	35831,73
447,58	36550,04
448,05	36314,79
448,51	36758,46
448,98	37293,20
449,44	37661,08
449,91	38312,95
450,37	38797,84
450,84	38819,86
451,30	38525,03
451,77	37872,87
452,23	37370,21
452,70	37134,19
453,16	36912,31
453,62	37515,62
454,09	38308,98
454,55	38606,57
455,02	38601,15
455,48	38789,18
455,95	39755,73
456,41	39885,96
456,88	39833,50
457,34	39865,70
457,80	39696,41
458,27	39104,76
458,73	39370,32
459,20	39714,14
459,66	40054,22
460,13	40209,51
460,59	40689,80
461,05	41446,70
461,52	41486,63
461,98	41424,56
462,45	41483,36
462,91	41560,32
463,37	41034,92
463,84	40574,21
464,30	40825,36
464,76	40596,31
465,23	40820,64
465,69	40868,13
466,16	40915,63
466,62	40453,22
467,08	40371,73
467,55	41134,30
468,01	41241,31
468,48	41404,24
468,94	41311,34
469,40	40998,30
469,87	40951,52
470,33	40745,61
470,79	41316,42
471,26	42155,32
471,72	42410,17
472,18	42710,62
472,65	42595,29
473,11	42440,71
473,57	42711,71
474,04	42851,45
474,50	43034,91
474,96	42868,92
475,43	42486,54
475,89	42401,44
476,35	42689,88
476,82	42966,84
477,28	43506,24
477,74	43944,42
478,21	44038,88
478,67	43891,90
479,13	44089,58
479,59	44704,20
480,06	44645,05
480,52	44905,08
480,98	44999,70
481,45	45307,40
481,91	45380,88
482,37	45055,23
482,84	44823,26
483,30	44543,91
483,76	44496,46
484,22	43967,03
484,69	42753,19
485,15	41121,24
485,61	39765,86
486,07	38888,09
486,54	39566,24
487,00	41776,73
487,46	42551,28
487,92	43224,27
488,39	43678,62
488,85	44069,15
489,31	44517,26
489,77	45694,99
490,24	45565,89
490,70	45172,53
491,16	44209,61
491,62	44358,85
492,09	43942,59
492,55	44599,77
493,01	45345,78
493,47	45842,78
493,94	45754,98
494,40	46496,87
494,86	46441,21
495,32	46612,96
495,78	46179,81
496,25	46415,94
496,71	46893,94
497,17	46403,12
497,63	45995,72
498,09	45675,61
498,56	45209,81
499,02	45900,22
499,48	45956,56
499,94	45407,93
500,40	44470,90
500,87	44225,29
501,33	44442,80
501,79	44607,80
502,25	45309,23
502,71	46062,32
503,17	45453,27
503,64	45633,91
504,10	45359,68
504,56	46182,37
505,02	47004,61
505,48	47261,91
505,94	47679,20
506,40	47259,34
506,87	46736,77
507,33	46336,85
507,79	46481,49
508,25	46599,41
508,71	47213,89
509,17	47337,07
509,63	47298,57
510,10	46853,27
510,56	47394,26
511,02	47994,70
511,48	47965,35
511,94	47559,27
512,40	46845,95
512,86	46407,88
513,32	46259,97
513,78	46086,11
514,25	46342,71
514,71	47491,43
515,17	46644,46
515,63	45726,08
516,09	44150,87
516,55	42634,58
517,01	42302,18
517,47	42515,27
517,93	43898,10
518,39	44330,75
518,85	44978,87
519,32	46422,90
519,78	46845,95
520,24	47366,40
520,70	47750,36
521,16	48203,88
521,62	48409,43
522,08	47942,97
522,54	47744,13
523,00	48074,70
523,46	49131,82
523,92	49809,14
524,38	50134,16
524,84	49906,93
525,30	49269,60
525,76	48054,88
526,22	46609,67
526,68	45875,34
527,14	46500,53
527,60	48235,81
528,06	49887,08
528,52	50382,41
528,98	50694,34
529,44	50658,29
529,90	50610,47
530,36	51122,27
530,82	51494,75
531,28	51393,16
531,74	50362,18
532,20	49344,56
532,66	49064,22
533,12	49370,28
533,58	50146,67
534,04	50383,51
534,50	50857,33
534,96	51761,65
535,42	52066,89
535,88	51805,46
536,34	50976,92
536,80	50407,42
537,26	50790,00
537,72	51541,50
538,18	51653,78
538,64	51272,80
539,10	50637,32
539,56	50389,40
540,02	49290,17
540,48	49622,03
540,94	49986,71
541,40	50700,60
541,86	50976,92
542,32	51040,58
542,78	50859,17
543,24	51185,21
543,69	51401,99
544,15	51887,57
544,61	51772,32
545,07	51682,86
545,53	51750,60
545,99	51701,64
546,45	51641,26
546,91	51522,72
547,37	51076,64
547,83	50949,32
548,29	51413,40
548,74	51899,72
549,20	52004,29
549,66	52502,94
550,12	52059,52
550,58	51806,20
551,04	52107,39
551,50	52381,02
551,96	52531,67
552,42	52094,50
552,87	51760,91
553,33	52128,75
553,79	52304,05
554,25	52803,52
554,71	52786,57
555,17	52930,25
555,63	52722,84
556,08	52237,02
556,54	51634,63
557,00	51479,29
557,46	51637,21
557,92	51586,41
558,38	50712,74
558,83	50316,57
559,29	50417,72
559,75	50851,45
560,21	51563,59
560,67	52167,05
561,13	51964,52
561,58	51618,80
562,04	51545,92
562,50	51907,08
562,96	52122,12
563,42	52157,11
563,87	51803,62
564,33	51940,95
564,79	51818,35
565,25	51106,08
565,71	50656,82
566,16	50973,61
566,62	51591,93
567,08	52045,16
567,54	51953,84
568,00	51272,06
568,45	50864,32
568,91	51005,99
569,37	51195,88
569,83	50840,77
570,28	50173,51
570,74	49574,25
571,20	49986,71
571,66	50937,18
572,11	51524,93
572,57	51768,27
573,03	51709,00
573,49	51581,99
573,94	51535,61
574,40	51249,98
574,86	50617,09
575,32	50331,65
575,77	50502,32
576,23	50650,20
576,69	51115,65
577,15	51071,49
577,60	50578,83
578,06	50093,71
578,52	50213,96
578,97	50765,72
579,43	51213,18
579,89	51846,70
580,34	52020,86
580,80	52283,42
581,26	52701,85
581,72	53111,52
582,17	53616,38
582,63	53765,65
583,09	53800,67
583,54	53810,99
584,00	53905,72
584,46	53879,18
584,91	53341,46
585,37	52786,94
585,83	52490,78
586,28	52877,57
586,74	53408,52
587,20	53658,76
587,65	53300,18
588,11	51911,87
588,57	49597,77
589,02	47836,20
589,48	48151,76
589,94	50019,44
590,39	51681,76
590,85	52050,32
591,30	51831,23
591,76	51986,98
592,22	52244,39
592,67	52233,71
593,13	52448,06
593,59	52516,56
594,04	52174,05
594,50	51703,48
594,95	51872,84
595,41	52157,11
595,87	52452,11
596,32	52781,42
596,78	52737,21
597,23	52421,90
597,69	52227,08
598,15	51835,28
598,60	52031,17
599,06	52432,59
599,51	52409,01
599,97	52479,36
600,43	52374,02
600,88	52057,31
601,34	52039,27
601,79	51674,39
602,25	51990,30
602,70	52462,79
603,16	53000,99
603,61	53208,80
604,07	53035,25
604,53	53144,32
604,98	53113,00
605,44	52919,20
605,89	52871,31
606,35	52731,68
606,80	53058,10
607,26	52990,31
607,71	52684,90
608,17	52445,11
608,62	52244,02
609,08	52546,40
609,53	52320,99
609,99	51932,49
610,44	51960,84
610,90	52480,84
611,35	52624,49
611,81	52557,45
612,26	52274,22
612,72	52389,86
613,17	52463,89
613,63	51573,89
614,08	51956,79
614,54	52512,88
614,99	52659,12
615,45	52277,53
615,90	51409,35
616,36	50818,33
616,81	51407,51
617,27	52232,23
617,72	53037,47
618,18	53201,80
618,63	53086,10
619,09	52813,83
619,54	53436,16
619,99	53752,01
620,45	54170,78
620,90	53885,08
621,36	53446,48
621,81	53144,32
622,27	53328,93
622,72	53080,21
623,18	52728,00
623,63	52818,99
624,08	52697,79
624,54	52111,81
624,99	52072,41
625,45	51902,29
625,90	52165,58
626,35	52735,37
626,81	52818,62
627,26	51796,99
627,72	49847,00
628,17	49981,20
628,62	51149,88
629,08	51329,85
629,53	50907,37
629,99	50679,63
630,44	51297,46
630,89	51713,42
631,35	51524,57
631,80	51364,81
632,26	52296,31
632,71	52903,36
633,16	52744,58
633,62	52300,00
634,07	52546,03
634,52	53002,83
634,98	53359,14
635,43	53175,64
635,88	52935,78
636,34	53083,89
636,79	53579,89
637,24	53993,46
637,70	54275,49
638,15	54204,70
638,60	54296,50
639,06	53935,58
639,51	53598,69
639,96	53243,44
640,42	53410,00
640,87	53424,00
641,32	53351,77
641,78	53513,55
642,23	53647,71
642,68	54129,49
643,14	53933,00
643,59	53812,10
644,04	53757,54
644,49	54026,63
644,95	53569,57
645,40	53293,18
645,85	53133,26
646,31	52951,62
646,76	52999,88
647,21	52821,94
647,66	52852,15
648,12	52616,02
648,57	52775,89
649,02	52264,27
649,47	51050,15
649,93	52261,33
650,38	53343,67
650,83	53650,66
651,28	52922,52
651,74	52459,84
652,19	52892,31
652,64	53428,42
653,09	53328,93
653,55	53443,53
654,00	53247,86
654,45	52528,35
654,90	51781,16
655,35	50401,17
655,81	47100,26
656,26	43587,14
656,71	46648,12
657,16	49751,79
657,62	51524,57
658,07	52479,36
658,52	52792,47
658,97	52554,13
659,42	52750,84
659,88	52960,09
660,33	53454,22
660,78	53388,62
661,23	53648,08
661,68	53855,22
662,13	53747,22
662,59	53540,83
663,04	53246,75
663,49	52944,62
663,94	53213,59
664,39	53236,43
664,84	53461,96
665,30	53801,77
665,75	53410,37
666,20	53068,78
666,65	53136,58
667,10	53602,74
667,55	53316,40
668,00	53072,84
668,46	53734,32
668,91	53604,59
669,36	53537,14
669,81	53108,94
670,26	53000,99
670,71	53116,68
671,16	52908,15
671,61	52636,28
672,06	52800,20
672,52	52872,04
672,97	53021,62
673,42	53091,26
673,87	53042,62
674,32	52745,31
674,77	52560,03
675,22	52583,23
675,67	52892,31
676,12	53106,73
676,57	52644,01
677,02	52533,14
677,47	52530,19
677,93	52863,94
678,38	52549,35
678,83	52644,75
679,28	52746,05
679,73	52630,75
680,18	52525,04
680,63	52324,30
681,08	52115,49
681,53	52178,47
681,98	52311,05
682,43	52409,38
682,88	52373,66
683,33	52313,99
683,78	51537,45
684,23	51052,72
684,68	51369,97
685,13	51320,28
685,58	50689,19
686,03	49840,75
686,48	44775,41
686,93	35115,94
687,38	33563,00
687,83	38337,11
688,28	41904,95
688,73	41182,18
689,18	40472,41
689,63	41115,44
690,08	42398,53
690,53	43658,94
690,98	44819,61
691,43	45584,17
691,88	46372,00
692,33	47052,98
692,78	47314,33
693,23	47641,06
693,68	47878,39
694,13	47709,65
694,58	48164,98
695,03	48851,91
695,48	48880,55
695,93	48968,34
696,38	49980,46
696,83	50648,73
697,28	50316,57
697,72	49569,84
698,17	49587,48
698,62	49522,79
699,07	49329,12
699,52	49357,42
699,97	49122,26
700,42	48684,07
700,87	48709,78
701,32	48866,23
701,77	48160,57
702,22	48368,32
702,67	48299,68
703,11	49320,30
703,56	49735,25
704,01	49639,67
704,46	50213,60
704,91	50193,00
705,36	49680,84
705,81	49565,80
706,26	49570,21
706,70	49655,85
707,15	50085,63
707,60	50436,11
708,05	50571,84
708,50	50016,50
708,95	49847,00
709,40	49750,32
709,84	49847,74
710,29	50084,52
710,74	49880,83
711,19	49880,09
711,64	50048,49
712,09	49906,56
712,53	49791,86
712,98	49568,37
713,43	49519,12
713,88	49392,33
714,33	49082,95
714,78	48349,60
715,22	48475,52
715,67	48672,32
716,12	47621,62
716,57	45401,35
717,02	43034,55
717,46	41379,56
717,91	40820,64
718,36	39231,20
718,81	38266,44
719,26	38321,24
719,70	38910,48
720,15	38809,03
720,60	39914,54
721,05	43009,43
721,49	44613,28
721,94	45098,35
722,39	44403,38
722,84	43460,69
723,28	40904,75
723,73	40510,45
724,18	40176,20
724,63	40924,33
725,07	40580,37
725,52	41133,57
725,97	41578,47
726,42	41244,21
726,86	42212,02
727,31	40851,46
727,76	40239,56
728,21	41953,64
728,65	41502,60
729,10	40426,05
729,55	41858,09
729,99	42630,22
730,44	42351,62
730,89	42606,21
731,33	43110,65
731,78	43656,75
732,23	44685,94
732,68	45171,44
733,12	45520,91
733,57	46591,35
734,02	47386,93
734,46	47462,83
734,91	47301,14
735,36	47211,32
735,80	47219,39
736,25	46923,99
736,70	47064,71
737,14	47388,39
737,59	47727,99
738,04	47538,00
738,48	47049,32
738,93	46978,22
739,37	47664,17
739,82	48268,84
740,27	48314,73
740,71	47796,95
741,16	47484,46
741,61	47562,21
742,05	47474,20
742,50	47829,97
742,94	48177,82
743,39	48520,67
743,84	48436,60
744,28	48342,26
744,73	48243,88
745,18	48927,94
745,62	48949,98
746,07	48462,67
746,51	48161,31
746,96	47982,59
747,40	47836,94
747,85	47889,03
748,30	47996,54
748,74	48015,99
749,19	47701,95
749,63	47801,72
750,08	47909,21
750,52	47562,57
750,97	47062,51
751,42	47025,13
751,86	47124,45
752,31	46837,88
752,75	46833,12
753,20	46650,69
753,64	46974,92
754,09	47228,18
754,53	47077,17
754,98	47002,04
755,42	46534,22
755,87	46284,87
756,31	46032,68
756,76	45508,48
757,20	45102,37
757,65	45066,56
758,09	44620,58
758,54	43374,71
758,98	39108,37
759,43	27174,27
759,87	15742,73
760,32	10215,57
760,76	9098,14
761,21	12016,76
761,65	18427,94
762,10	19292,91
762,54	16284,26
762,99	14775,00
763,43	15487,32
763,88	17272,37
764,32	19662,18
764,77	22551,57
765,21	25513,34
765,66	28085,79
766,10	30774,18
766,54	33405,59
766,99	36020,81
767,43	38258,50
767,88	40051,68
768,32	41539,26
768,77	42353,80
769,21	43288,74
769,66	43552,15
770,10	44191,36
770,54	44617,66
770,99	44220,92
771,43	44110,01
771,88	44163,27
772,32	44167,65
772,76	44147,58
773,21	44463,60
773,65	44601,23
774,10	44242,81
774,54	44295,35
774,98	44289,51
775,43	45001,89
775,87	45394,04
776,31	45387,83
776,76	44861,98
777,20	44439,88
777,65	43896,64
778,09	43839,40
778,53	43853,25
778,98	43918,52
779,42	44031,58
779,86	43996,93
780,31	44118,03
780,75	44298,64
781,19	44350,82
781,64	44353,74
782,08	44395,71
782,52	43874,04
782,97	43113,20
783,41	42554,55
783,85	42531,27
784,30	42548,37
784,74	42608,02
785,18	42644,77
785,63	42862,37
786,07	42971,57
786,51	43093,53
786,95	43024,36
787,40	42455,62
787,84	42078,63
788,28	41796,34
788,73	41390,08
789,17	40701,40
789,61	40336,60
790,05	40333,70
790,50	40283,00
790,94	40530,38
791,38	40716,26
791,82	40657,55
792,27	40774,25
792,71	40419,17
793,15	40585,08
793,59	39889,94
794,04	39493,57
794,48	39048,78
794,92	39061,06
795,36	38949,83
795,81	38911,56
796,25	38816,61
796,69	39454,89
797,13	40008,98
797,57	40226,52
798,02	40234,49
798,46	40137,47
798,90	39772,73
799,34	38963,55
799,79	38299,61
800,23	37811,27
800,67	37635,51
801,11	37831,08
801,55	38138,81
801,99	38281,58
802,44	38429,44
802,88	38821,30
803,32	38936,47
803,76	39086,34
804,20	38533,33
804,64	37946,36
805,09	37867,10
805,53	37723,38
805,97	37342,14
806,41	37134,19
806,85	37098,22
807,29	36946,82
807,74	37252,90
808,18	37223,40
808,62	37387,84
809,06	37335,30
809,50	37347,90
809,94	37274,85
810,38	37189,23
810,82	36830,34
811,27	36405,65
811,71	35472,81
812,15	34745,39
812,59	34112,01
813,03	33158,70
813,47	32244,68
813,91	31757,21
814,35	31537,12
814,79	31334,54
815,23	31252,47
815,67	30829,55
816,12	30328,29
816,56	29893,80
817,00	30717,40
817,44	30135,09
817,88	29707,86
818,32	29431,75
818,76	29650,15
819,20	29502,89
819,64	29620,41
820,08	30889,89
820,52	32145,01
820,96	32830,31
821,40	32302,00
821,84	31754,72
822,28	29303,31
822,72	27920,34
823,16	28260,48
823,60	30117,37
824,04	31628,48
824,48	32188,43
824,92	32193,77
825,36	31771,08
825,80	31463,19
826,24	31754,72
826,68	31757,56
827,12	31415,56
827,56	30876,76
828,00	31290,84
828,44	31375,76
828,88	31605,02
829,32	31904,46
829,76	31686,44
830,20	31805,22
830,64	31446,48
831,08	31308,25
831,52	30603,15
831,96	30738,70
832,40	30831,68
832,84	31220,50
833,28	31629,55
833,72	32239,34
834,16	33031,02
834,60	33570,49
835,04	33759,03
835,48	33695,46
835,91	33032,45
836,35	32730,16
836,79	32391,37
837,23	32434,11
837,67	32185,23
838,11	32201,61
838,55	32560,56
838,99	32764,01
839,43	33518,02
839,87	34008,02
840,30	34413,39
840,74	34696,01
841,18	34564,70
841,62	34444,51
842,06	34109,51
842,50	33667,96
842,94	32969,34
843,38	32249,31
843,81	31926,88
844,25	31740,85
844,69	32093,40
845,13	32483,62
845,57	33046,71
846,01	33521,59
846,45	33599,77
846,88	34093,42
847,32	34355,46
847,76	34615,50
848,20	34601,90
848,64	34138,46
849,08	33004,64
849,51	32185,59
849,95	31334,19
850,39	31458,92
850,83	31718,80
851,27	31659,77
851,70	31342,01
852,14	31485,58
852,58	31336,68
853,02	30779,15
853,46	29571,20
853,89	29003,40
854,33	29397,43
854,77	31034,40
855,21	32756,17
855,65	33257,87
856,08	33331,72
856,52	32870,94
856,96	32234,00
857,40	31608,93
857,83	31228,67
858,27	31149,46
858,71	30982,55
859,15	31267,04
859,58	31869,25
860,02	32318,38
860,46	32747,98
860,89	33407,02
861,33	33511,24
861,77	33731,17
862,21	33620,12
862,64	33298,19
863,08	32836,37
863,52	32391,37
863,95	31348,05
864,39	30979,71
864,83	30383,60
865,27	29253,78
865,70	28495,27
866,14	28203,66
866,58	28999,87
867,01	30613,44
867,45	31781,75
867,89	32212,64
868,32	32374,99
868,76	32412,39
869,20	32152,13
869,63	31770,01
870,07	31151,24
870,51	30136,15
870,94	29615,81
871,38	29373,72
871,82	29371,24
872,25	29724,50
872,69	30008,94
873,13	30224,41
873,56	30962,67
874,00	31433,33
874,43	31707,07
874,87	31910,51
875,31	31850,39
875,74	31504,06
876,18	31647,68
876,61	30886,34
877,05	30500,64
877,49	29848,81
877,92	29509,61
878,36	29073,41
878,79	28711,81
879,23	28578,63
879,67	28307,08
880,10	28485,74
880,54	28863,41
880,97	29734,07
881,41	30736,92
881,84	31155,85
882,28	31588,31
882,72	31756,50
883,15	31672,22
883,59	31177,88
884,02	30471,91
884,46	29934,18
884,89	29158,99
885,33	28490,68
885,76	27846,98
886,20	27332,75
886,63	27496,23
887,07	27482,84
887,50	27928,45
887,94	28375,21
888,37	28827,01
888,81	29632,09
889,24	29598,11
889,68	29937,37
890,11	30264,83
890,55	30548,88
890,98	30686,89
891,42	30280,78
891,85	29352,84
892,29	28439,12
892,72	27512,79
893,16	26810,68
893,59	26223,17
894,03	25621,38
894,46	24855,48
894,90	24508,23
895,33	23927,12
895,77	24112,34
896,20	24105,70
896,63	24164,78
897,07	24701,77
897,50	24863,89
897,94	24073,19
898,37	24219,67
898,81	22947,96
899,24	22460,03
899,68	23142,83
900,11	22312,13
900,54	21637,11
900,98	21397,22
901,41	21286,19
901,85	21597,17
902,28	21855,95
902,71	22772,01
903,15	24004,69
903,58	24866,69
904,02	25003,99
904,45	25093,69
904,88	25307,49
905,32	24907,32
905,75	25169,73
906,18	23847,12
906,62	24017,97
907,05	22947,96
907,48	23299,42
907,92	22436,01
908,35	22372,67
908,79	21614,19
909,22	21377,10
909,65	20864,58
910,09	21323,31
910,52	21204,67
910,95	21497,88
911,38	22353,88
911,82	21791,68
912,25	22218,90
912,68	22127,79
913,12	22640,71
913,55	23149,45
913,98	23784,59
914,42	23374,08
914,85	23097,15
915,28	21806,27
915,72	21676,70
916,15	21418,74
916,58	21097,51
917,01	20841,36
917,45	20590,94
917,88	21753,46
918,31	22153,52
918,74	23080,07
919,18	23905,11
919,61	23925,02
920,04	24569,12
920,47	24656,27
920,91	24911,17
921,34	24868,79
921,77	24847,08
922,20	25021,86
922,64	24586,97
923,07	24279,11
923,50	23505,28
923,93	23010,00
924,37	22559,93
924,80	22051,64
925,23	21836,15
925,66	21502,39
926,09	20786,27
926,53	20781,77
926,96	20056,06
927,39	19685,32
927,82	18811,40
928,25	18464,40
928,69	18084,78
929,12	17706,29
929,55	16869,16
929,98	16109,00
930,41	14994,45
930,84	13948,23
931,28	12493,02
931,71	11904,12
932,14	10787,34
932,57	10276,00
933,00	9524,26
933,43	8942,80
933,86	9215,35
934,30	8648,32
934,73	9575,20
935,16	9370,78
935,59	8704,53
936,02	9151,72
936,45	9033,52
936,88	8516,54
937,31	9440,48
937,75	9732,77
938,18	10496,31
938,61	10991,45
939,04	11137,13
939,47	10790,70
939,90	10002,45
940,33	9774,02
940,76	9165,11
941,19	9001,72
941,62	8447,65
942,05	8714,57
942,48	8070,91
942,91	7796,29
943,35	8336,30
943,78	8197,91
944,21	8147,44
944,64	8633,27
945,07	8725,94
945,50	8558,68
945,93	8918,70
946,36	9316,84
946,79	9215,35
947,22	9628,84
947,65	9701,93
948,08	9150,38
948,51	9355,71
948,94	9256,88
949,37	9324,88
949,80	9267,94
950,23	9552,08
950,66	9695,22
951,09	9559,79
951,52	9186,21
951,95	9691,87
952,38	10134,00
952,81	10983,38
953,24	11035,52
953,67	11507,45
954,10	10923,85
954,53	11429,99
954,96	11263,33
955,39	11156,31
955,82	11651,98
956,25	11509,47
956,68	11639,18
957,11	11994,50
957,53	11416,18
957,96	11274,10
958,39	11202,08
958,82	11018,03
959,25	11305,75
959,68	12111,89
960,11	12525,45
960,54	12643,70
960,97	13198,68
961,40	13640,68
961,83	13963,49
962,26	13791,20
962,68	14966,88
963,11	14719,57
963,54	14781,81
963,97	14792,01
964,40	14531,91
964,83	14611,45
965,26	14389,88
965,69	14130,11
966,11	14353,20
966,54	14428,95
966,97	15177,27
967,40	15564,70
967,83	15874,79
968,26	15907,89
968,69	15843,73
969,11	16174,58
969,54	16146,91
969,97	16307,84
970,40	16769,89
970,83	16702,81
971,26	16877,71
971,68	17004,76
972,11	16708,97
972,54	16892,78
972,97	16478,42
973,40	16145,89
973,82	16069,72
974,25	15702,82
974,68	15346,57
975,11	15154,80
975,54	15043,81
975,96	15090,44
976,39	15246,41
976,82	15451,19
977,25	15239,60
977,67	15299,89
978,10	15580,39
978,53	15769,00
978,96	16263,41
979,38	16658,67
979,81	16906,13
980,24	17487,37
980,67	17745,08
981,09	17673,00
981,52	17835,38
981,95	17746,11
982,38	17806,88
982,80	17651,03
983,23	17759,50
983,66	17576,23
984,08	17209,30
984,51	16950,65
984,94	16874,29
985,37	16678,86
985,79	16342,70
986,22	16178,00
986,65	16135,98
987,07	16067,67
987,50	16132,22
987,93	16312,96
988,35	16420,30
988,78	16698,02
989,21	16791,79
989,63	17097,93
990,06	17319,33
990,49	17570,74
990,91	17757,79
991,34	17657,90
991,77	17522,70
992,19	17309,05
992,62	17067,44
993,05	16880,80
993,47	16650,80
993,90	16374,83
994,32	16055,04
994,75	15788,11
995,18	15542,88
995,60	15498,22
996,03	15298,87
996,45	15351,34
996,88	15354,06
997,31	15259,69
997,73	15326,12
998,16	15396,66
998,58	15661,55
999,01	15656,43
999,44	15833,83
999,86	16016,79
1000,29	15970,36
1000,71	16000,75
1001,14	15911,99
1001,56	15560,61
1001,99	15398,36
1002,41	15070,70
1002,84	14659,38
1003,27	14262,18
1003,69	14084,29
1004,12	13752,20
1004,54	13716,61
1004,97	13573,58
1005,39	13421,81
1005,82	13455,34
1006,24	13494,97
1006,67	13486,16
1007,09	13510,90
1007,52	13554,94
1007,94	13616,28
1008,37	13978,08
1008,79	13767,80
1009,22	13819,00
1009,64	13822,73
1010,07	13826,46
1010,49	13948,57
1010,92	13759,32
1011,34	13802,05
1011,77	13568,83
1012,19	13410,29
1012,62	13240,65
1013,04	12918,54
1013,46	12686,28
1013,89	12380,57
1014,31	12358,96
1014,74	12210,43
1015,16	12157,45
1015,59	12138,21
1016,01	12362,67
1016,44	12383,27
1016,86	13252,50
1017,28	12617,68
1017,71	12570,04
1018,13	12990,92
1018,56	12908,39
1018,98	12891,82
1019,40	12952,02
1019,83	12936,46
1020,25	13082,60
1020,68	13054,18
1021,10	13051,14
1021,52	13048,09
1021,95	13314,79
1022,37	13068,05
1022,79	12815,75
1023,22	12689,32
1023,64	12505,18
1024,07	12387,99
1024,49	12255,66
1024,91	12108,18
1025,34	12081,87
1025,76	12214,48
1026,18	12019,46
1026,61	12012,04
1027,03	12056,90
1027,45	12102,11
1027,88	12157,11
1028,30	12438,31
1028,72	12338,70
1029,15	12341,74
1029,57	12351,19
1029,99	12406,90
1030,41	12119,65
1030,84	12112,91
1031,26	12039,02
1031,68	11757,80
1032,11	11712,30
1032,53	11465,02
1032,95	11259,63
1033,37	11089,69
1033,80	11081,27
1034,22	10769,86
1034,64	10767,84
1035,06	10431,82
1035,49	10382,78
1035,91	10348,19
1036,33	10153,13
1036,75	10237,05
1037,18	10199,45
1037,60	10174,61
1038,02	10238,73
1038,44	10320,65
1038,87	10115,54
1039,29	10210,20
1039,71	10220,27
1040,13	10124,94
1040,55	10228,32
1040,98	10137,02
1041,40	9987,35
1041,82	9895,77
1042,24	9631,18
1042,66	9568,50
1043,09	9332,92
1043,51	9225,73
1043,93	9083,07
1044,35	8972,26
1044,77	8892,93
1045,20	8812,61
1045,62	8610,52
1046,04	8602,50
1046,46	8546,64
1046,88	8433,27
1047,30	8492,12
1047,72	8501,49
1048,15	8413,54
1048,57	8324,60
1048,99	8291,84
1049,41	8318,58
1049,83	8298,52
1050,25	8330,62
1050,67	8195,23
1051,09	8143,76
1051,52	8101,99
1051,94	7907,19
1052,36	7995,39
1052,78	7851,41
1053,20	7837,71
1053,62	7729,16
1054,04	7713,13
1054,46	7601,60
1054,88	7649,68
1055,30	7463,05
1055,72	7401,96
1056,14	7219,74
1056,57	7432,01
1056,99	7004,21
1057,41	6971,19
1057,83	6903,81
1058,25	6772,40
1058,67	6728,39
1059,09	6668,03
1059,51	6720,38
1059,93	6617,35
1060,35	6550,34
1060,77	6583,34
1061,19	6668,36
1061,61	6520,67
1062,03	6491,66
1062,45	6441,66
1062,87	6485,33
1063,29	6486,33
1063,71	6394,33
1064,13	6281,34
1064,55	6232,68
1064,97	6355,66
1065,39	6217,69
1065,81	6155,37
1066,23	6161,37
1066,65	6031,75
1067,07	6135,71
1067,49	5982,78
1067,91	5890,16
1068,33	5812,21
1068,75	5905,49
1069,17	5834,20
1069,59	5822,87
1070,00	5691,97
1070,42	5725,94
1070,84	5650,34
1071,26	5559,08
1071,68	5493,81
1072,10	5611,37
1072,52	5559,08
1072,94	5494,81
1073,36	5481,16
1073,78	5495,81
1074,20	5521,12
1074,62	5458,85
1075,03	5476,16
1075,45	5476,50
1075,87	5517,45
1076,29	5376,60
1076,71	5449,86
1077,13	5444,53
1077,55	5220,78
1077,97	5280,04
1078,38	5200,14
1078,80	5157,19
1079,22	5138,21
1079,64	5063,98
1080,06	5025,70
1080,48	5031,02
1080,89	4987,75
1081,31	4923,84
1081,73	4900,87
1082,15	4885,89
1082,57	4945,81
1082,99	4841,29
1083,40	4796,69
1083,82	4905,20
1084,24	4736,79
1084,66	4734,46
1085,08	4779,72
1085,49	4652,59
1085,91	4786,71
1086,33	6903,14
1086,75	4740,78
1087,17	4645,60
1087,58	4643,60
1088,00	4602,67
1088,42	4681,87
1088,84	4574,71
1089,25	4504,16
1089,67	4520,47
1090,09	4445,26
1090,51	4369,06
1090,92	4453,58
1091,34	4318,49
1091,76	4332,13
1092,18	4282,22
1092,59	4273,57
1093,01	4225,99
1093,43	4230,98
1093,84	4142,15
1094,26	4163,77
1094,68	4191,05
1095,10	4091,91
1095,51	4124,84
1095,93	4067,95
1096,35	4135,82
1096,76	4087,58
1097,18	4093,90
1097,60	4025,37
1098,01	4011,06
1098,43	3938,54
1098,85	3914,58
1099,26	3894,62
1099,68	3897,62
1100,10	3768,21
1100,51	3809,46
1100,93	3797,15
1101,35	3803,80
1101,76	3825,09
1102,18	4221,33
1102,60	3830,08
1103,01	3611,86
1103,43	3720,64
1103,84	3681,72
1104,26	3660,43
1104,68	3659,43
1105,09	3567,29
1105,51	3564,63
1105,92	3675,73
1106,34	3476,14
1106,76	3594,56
1107,17	3530,70
1107,59	3520,39
1108,00	3401,30
1108,42	3450,20
1108,83	3362,05
1109,25	3411,95
1109,67	3359,73
1110,08	3349,08
1110,50	3317,15
1110,91	3343,76
1111,33	3254,29
1111,74	3214,37
1112,16	3266,92
1112,57	3268,26
1112,99	3169,80
1113,41	3180,78
1113,82	3132,55
1114,24	3174,13
1114,65	3090,64
1115,07	3024,79
1115,48	3006,49
1115,90	2148,42
1116,31	2166,71
1116,73	2164,72
1117,14	2164,39
>>>>>End Processed Spectral Data<<<<<
