SpectraSuite Data File
++++++++++++++++++++++++++++++++++++
Date: Tue Oct 11 14:34:06 EEST 2016
User: OO Maya
Dark Spectrum Present: No
Reference Spectrum Present: No
Number of Sampled Component Spectra: 1
Spectrometers: MAYP11278
Integration Time (usec): 7000000 (MAYP11278)
Spectra Averaged: 3 (MAYP11278)
Boxcar Smoothing: 0 (MAYP11278)
Correct for Electrical Dark: No (MAYP11278)
Strobe/Lamp Enabled: No (MAYP11278)
Correct for Detector Non-linearity: Yes (MAYP11278)
Correct for Stray Light: No (MAYP11278)
Number of Pixels in Processed Spectrum: 2068
>>>>>Begin Processed Spectral Data<<<<<
187,82	2263,83
188,30	2195,31
188,78	2162,06
189,26	2163,72
189,73	5249,74
190,21	5487,48
190,69	5390,92
191,17	5483,16
191,64	5787,56
192,12	5489,15
192,60	5411,89
193,07	5185,82
193,55	5476,16
194,03	5486,49
194,51	5609,04
194,98	5448,86
195,46	5797,56
195,94	5402,57
196,42	5520,45
196,89	6365,33
197,37	5507,13
197,85	5303,01
198,32	5440,53
198,80	5318,66
199,28	5671,65
199,76	5780,57
200,23	5447,52
200,71	5480,82
201,19	5765,58
201,66	5809,88
202,14	5758,92
202,62	5282,04
203,09	5693,97
203,57	5319,33
204,05	5836,20
204,53	5964,79
205,00	5434,20
205,48	5421,88
205,96	6003,43
206,43	5461,51
206,91	5682,31
207,39	6415,33
207,86	5655,00
208,34	5829,53
208,82	5533,44
209,29	5909,15
209,77	5781,23
210,25	5577,40
210,72	5595,72
211,20	5735,27
211,68	5634,35
212,15	5446,53
212,63	6131,71
213,11	5801,89
213,58	5521,45
214,06	6166,70
214,53	5694,63
215,01	6098,06
215,49	5786,90
215,96	5864,18
216,44	5846,86
216,92	5841,53
217,39	5487,48
217,87	5598,05
218,35	6049,08
218,82	5298,69
219,30	5449,19
219,77	5482,16
220,25	5689,64
220,73	6391,66
221,20	5556,42
221,68	5978,45
222,15	5498,14
222,63	5885,16
223,11	5524,78
223,58	5875,84
224,06	5607,71
224,53	5578,40
225,01	5409,23
225,49	5622,03
225,96	5496,48
226,44	5724,28
226,91	5929,47
227,39	5601,38
227,87	5955,46
228,34	5873,51
228,82	5840,53
229,29	5626,36
229,77	5648,67
230,24	5557,08
230,72	5880,50
231,20	5984,44
231,67	5705,62
232,15	5777,24
232,62	5425,55
233,10	5736,93
233,57	5751,92
234,05	6850,44
234,53	5790,89
235,00	5530,11
235,48	5460,51
235,95	5406,57
236,43	5944,13
236,90	6318,67
237,38	5542,76
237,85	5742,59
238,33	5720,94
238,80	5763,58
239,28	5617,36
239,75	5394,25
240,23	5859,18
240,71	6114,05
241,18	5741,26
241,66	5678,98
242,13	6006,76
242,61	6021,09
243,08	5388,92
243,56	5467,50
244,03	5934,14
244,51	6130,05
244,98	5602,71
245,46	6082,07
245,93	19635,25
246,41	5297,02
246,88	5761,91
247,36	5672,32
247,83	5767,24
248,31	5807,88
248,78	5266,72
249,26	5656,33
249,73	5922,14
250,21	5778,57
250,68	6131,05
251,16	5701,63
251,63	6300,67
252,10	6099,72
252,58	5567,74
253,05	6069,40
253,53	5725,94
254,00	5649,34
254,48	5744,26
254,95	5807,88
255,43	5988,11
255,90	5535,44
256,38	5814,54
256,85	5940,47
257,33	6035,08
257,80	6773,40
258,27	5768,91
258,75	5566,41
259,22	5802,22
259,70	5920,14
260,17	6280,01
260,65	5753,92
261,12	5566,41
261,59	6075,73
262,07	5511,46
262,54	5804,55
263,02	5729,60
263,49	5372,94
263,97	5941,80
264,44	6053,41
264,91	5650,67
265,39	5743,59
265,86	5901,82
266,34	5906,49
266,81	5619,36
267,28	5697,96
267,76	5844,52
268,23	5835,20
268,71	5300,02
269,18	5471,83
269,65	5607,37
270,13	5907,48
270,60	6074,73
271,08	5697,63
271,55	5745,26
272,02	5385,92
272,50	5482,16
272,97	5195,48
273,44	5724,61
273,92	6934,49
274,39	5887,16
274,87	5998,77
275,34	5574,40
275,81	5652,67
276,29	5857,85
276,76	6012,10
277,23	5418,55
277,71	5662,66
278,18	5432,21
278,65	7244,10
279,13	5648,34
279,60	5569,07
280,07	7069,60
280,55	6011,76
281,02	6804,75
281,50	5552,42
281,97	6087,40
282,44	5637,35
282,91	5709,62
283,39	5908,48
283,86	5476,16
284,33	5453,19
284,81	5975,11
285,28	5721,61
285,75	5876,17
286,23	5856,18
286,70	5329,32
287,17	5859,18
287,65	6272,01
288,12	5639,01
288,59	5893,16
289,07	5202,47
289,54	6178,03
290,01	5479,49
290,48	5851,85
290,96	5566,74
291,43	5897,82
291,90	6445,66
292,38	5530,78
292,85	6075,07
293,32	5598,38
293,79	5836,86
294,27	5895,49
294,74	5592,39
295,21	5759,92
295,69	5845,19
296,16	6303,67
296,63	6276,34
297,10	5960,12
297,58	5858,18
298,05	5863,84
298,52	5622,03
298,99	6281,34
299,47	5695,96
299,94	5894,83
300,41	5582,06
300,88	6028,42
301,36	6024,76
301,83	6030,42
302,30	5467,50
302,77	5961,12
303,25	5971,45
303,72	5563,74
304,19	5627,69
304,66	5510,79
305,13	5778,57
305,61	5868,51
306,08	5785,90
306,55	5921,48
307,02	5683,64
307,49	5698,63
307,97	5818,54
308,44	5657,33
308,91	6063,74
309,38	6094,06
309,86	5901,82
310,33	5783,23
310,80	5881,17
311,27	5548,76
311,74	6035,75
312,21	5747,92
312,69	6420,33
313,16	5564,08
313,63	5675,65
314,10	5765,58
314,57	5593,38
315,05	5602,04
315,52	6040,75
315,99	6022,42
316,46	5819,54
316,93	5952,13
317,40	5824,20
317,88	6658,70
318,35	5792,23
318,82	5718,61
319,29	5433,21
319,76	5922,14
320,23	6335,67
320,70	6038,08
321,18	5637,01
321,65	5294,69
322,12	5469,17
322,59	6326,33
323,06	5692,97
323,53	6562,67
324,00	5433,21
324,48	5825,87
324,95	5741,60
325,42	5653,33
325,89	5618,70
326,36	5660,66
326,83	5910,82
327,30	5927,14
327,77	5861,85
328,24	5795,22
328,72	5712,95
329,19	5610,37
329,66	5682,31
330,13	5564,41
330,60	6025,09
331,07	5911,82
331,54	6304,00
332,01	5572,74
332,48	6412,33
332,95	5983,11
333,43	5942,80
333,90	6211,36
334,37	5873,51
334,84	5952,79
335,31	7016,22
335,78	5485,82
336,25	5714,95
336,72	5658,66
337,19	5869,17
337,66	5661,66
338,13	5677,98
338,60	6265,01
339,07	6101,06
339,54	5490,48
340,01	5595,72
340,49	5485,82
340,96	5916,48
341,43	6100,39
341,90	5675,31
342,37	5881,17
342,84	5997,10
343,31	5863,18
343,78	5713,28
344,25	5745,93
344,72	5616,70
345,19	5751,26
345,66	5970,12
346,13	5665,32
346,60	5526,45
347,07	6303,34
347,54	5668,32
348,01	6136,38
348,48	5894,16
348,95	5406,23
349,42	5801,22
349,89	6093,73
350,36	5781,57
350,83	5557,42
351,30	5889,16
351,77	6356,00
352,24	5848,19
352,71	5749,92
353,18	5831,87
353,65	5954,13
354,12	5814,88
354,59	6025,42
355,06	5884,50
355,53	6306,34
356,00	5619,36
356,47	6260,34
356,94	5544,43
357,41	6744,06
357,88	6027,09
358,35	5418,22
358,82	5520,12
359,28	5608,37
359,75	5674,65
360,22	6051,41
360,69	6258,01
361,16	5658,66
361,63	5745,26
362,10	5772,24
362,57	5727,61
363,04	5804,88
363,51	6569,67
363,98	5955,12
364,45	5583,06
364,92	5903,82
365,39	5616,70
365,86	5454,18
366,32	5851,52
366,79	5787,56
367,26	10381,44
367,73	5281,37
368,20	5481,16
368,67	6068,07
369,14	5484,15
369,61	6039,75
370,08	5855,85
370,55	5722,94
371,02	9187,55
371,48	5829,87
371,95	5589,06
372,42	5344,97
372,89	5582,39
373,36	5772,91
373,83	5413,56
374,30	5557,42
374,77	5837,86
375,23	5357,95
375,70	6232,68
376,17	5650,34
376,64	5447,19
377,11	5515,46
377,58	5877,50
378,05	5827,87
378,51	5768,24
378,98	5785,56
379,45	5764,91
379,92	5938,80
380,39	6581,34
380,86	5792,56
381,33	6176,37
381,79	6184,70
382,26	5414,56
382,73	5867,51
383,20	5668,32
383,67	6071,40
384,14	5729,94
384,60	7541,17
385,07	5723,94
385,54	5619,69
386,01	5721,94
386,48	6357,33
386,94	5493,48
387,41	5478,49
387,88	6034,75
388,35	5897,82
388,82	6182,03
389,28	5535,44
389,75	5937,47
390,22	5798,89
390,69	5922,48
391,16	5915,81
391,62	5820,21
392,09	5896,16
392,56	5759,58
393,03	5705,62
393,50	6549,34
393,96	5734,27
394,43	6103,06
394,90	5515,79
395,37	6038,42
395,83	7466,06
396,30	5417,22
396,77	5924,14
397,24	5993,77
397,70	5466,17
398,17	5736,27
398,64	5583,73
399,11	5492,48
399,57	6098,06
400,04	5451,52
400,51	5768,58
400,98	5620,03
401,44	5832,20
401,91	5833,86
402,38	5757,25
402,84	5534,11
403,31	6259,35
403,78	5654,66
404,25	6238,35
404,71	6386,66
405,18	6222,02
405,65	5521,45
406,12	5995,44
406,58	5968,45
407,05	6414,66
407,52	5763,58
407,98	5854,85
408,45	5976,11
408,92	5480,82
409,38	6101,06
409,85	5504,47
410,32	6183,70
410,78	5513,46
411,25	6120,05
411,72	5661,66
412,18	5300,68
412,65	5924,47
413,12	5663,99
413,59	5882,83
414,05	5920,48
414,52	6297,67
414,98	5667,65
415,45	6289,67
415,92	5850,19
416,38	5813,88
416,85	6404,66
417,32	5852,85
417,78	5722,28
418,25	5836,20
418,72	5792,23
419,18	6028,75
419,65	5548,76
420,12	6011,76
420,58	5477,49
421,05	5725,27
421,51	5597,71
421,98	5909,82
422,45	5593,05
422,91	5718,95
423,38	5863,18
423,85	6002,43
424,31	5714,95
424,78	6044,75
425,24	5764,58
425,71	6138,04
426,18	5600,38
426,64	6145,71
427,11	5978,45
427,57	6050,08
428,04	5465,51
428,51	6082,73
428,97	5883,83
429,44	5757,25
429,90	5885,83
430,37	6967,18
430,83	5438,87
431,30	5693,30
431,77	6285,67
432,23	6092,39
432,70	5717,61
433,16	5656,00
433,63	5779,57
434,09	5646,01
434,56	5971,12
435,03	5442,53
435,49	6034,09
435,96	5817,54
436,42	5390,58
436,89	6031,75
437,35	5835,20
437,82	5840,19
438,28	5551,42
438,75	5693,63
439,21	7246,44
439,68	5869,51
440,14	6017,43
440,61	6157,37
441,07	5509,46
441,54	5629,02
442,00	6584,34
442,47	5470,17
442,94	5872,17
443,40	5896,16
443,87	5439,87
444,33	6326,67
444,80	5888,16
445,26	5726,27
445,73	5773,91
446,19	5904,82
446,65	5726,94
447,12	5801,22
447,58	5620,36
448,05	5540,10
448,51	5963,45
448,98	5971,78
449,44	5744,93
449,91	5541,43
450,37	5492,48
450,84	5576,07
451,30	5780,57
451,77	5978,45
452,23	5516,79
452,70	6099,06
453,16	5725,61
453,62	5758,25
454,09	5816,54
454,55	5964,79
455,02	5598,38
455,48	5797,89
455,95	6046,41
456,41	5618,03
456,88	6194,03
457,34	5664,99
457,80	5732,94
458,27	5428,21
458,73	5817,87
459,20	5763,58
459,66	6066,74
460,13	5602,38
460,59	5490,15
461,05	6191,03
461,52	6048,41
461,98	5536,10
462,45	5385,59
462,91	6111,72
463,37	5673,98
463,84	5816,21
464,30	5825,87
464,76	5494,48
465,23	5559,75
465,69	6101,39
466,16	5805,55
466,62	5900,49
467,08	5959,12
467,55	5728,94
468,01	5842,86
468,48	5899,16
468,94	5758,58
469,40	5530,44
469,87	5928,47
470,33	5852,52
470,79	5590,05
471,26	5679,98
471,72	5501,14
472,18	5628,02
472,65	5674,98
473,11	6187,70
473,57	5671,98
474,04	5554,09
474,50	5728,61
474,96	5469,84
475,43	5910,15
475,89	5770,91
476,35	5903,49
476,82	5679,64
477,28	5780,90
477,74	6256,01
478,21	5888,83
478,67	6103,39
479,13	5541,77
479,59	6380,66
480,06	5934,80
480,52	5856,85
480,98	5599,05
481,45	5725,61
481,91	5794,89
482,37	5456,85
482,84	5676,65
483,30	5337,31
483,76	5707,62
484,22	6277,01
484,69	5819,21
485,15	5781,23
485,61	5360,95
486,07	5677,31
486,54	5334,65
487,00	5819,54
487,46	5377,60
487,92	5375,60
488,39	5560,08
488,85	5841,86
489,31	5769,24
489,77	6064,41
490,24	5424,22
490,70	5809,88
491,16	5450,19
491,62	5516,46
492,09	5262,73
492,55	6046,75
493,01	5813,54
493,47	5737,27
493,94	5670,65
494,40	5658,99
494,86	5532,77
495,32	5493,15
495,78	5743,59
496,25	5570,41
496,71	5721,28
497,17	6344,33
497,63	6027,42
498,09	5509,13
498,56	5817,87
499,02	5562,75
499,48	6581,34
499,94	5706,96
500,40	5551,09
500,87	5714,28
501,33	5584,06
501,79	5913,15
502,25	5725,27
502,71	7635,66
503,17	5653,67
503,64	5873,17
504,10	5571,07
504,56	5839,53
505,02	5852,85
505,48	5507,13
505,94	5725,61
506,40	6010,10
506,87	5678,31
507,33	5898,49
507,79	5831,20
508,25	5584,73
508,71	5453,85
509,17	5321,66
509,63	5602,04
510,10	5740,60
510,56	5529,11
511,02	6142,04
511,48	6165,04
511,94	5465,17
512,40	5308,34
512,86	5547,43
513,32	5905,49
513,78	5207,79
514,25	6012,76
514,71	10183,34
515,17	5205,46
515,63	5846,19
516,09	6113,39
516,55	5930,80
517,01	6590,68
517,47	5873,17
517,93	5763,91
518,39	6992,87
518,85	5730,60
519,32	5584,06
519,78	5412,56
520,24	5521,45
520,70	5898,82
521,16	5908,15
521,62	5975,45
522,08	5726,27
522,54	5387,25
523,00	6359,00
523,46	6008,10
523,92	5661,66
524,38	6403,33
524,84	5917,15
525,30	6006,10
525,76	6127,71
526,22	5814,54
526,68	5734,27
527,14	5620,03
527,60	5662,66
528,06	5974,78
528,52	5875,50
528,98	5609,04
529,44	5464,51
529,90	5894,16
530,36	5934,47
530,82	5399,24
531,28	6082,73
531,74	5714,95
532,20	5754,59
532,66	5734,60
533,12	5894,49
533,58	5623,36
534,04	5419,22
534,50	5671,32
534,96	5516,12
535,42	5810,55
535,88	5575,40
536,34	5910,82
536,80	5493,15
537,26	5940,13
537,72	5700,29
538,18	5716,95
538,64	6335,67
539,10	5943,46
539,56	7680,41
540,02	5296,36
540,48	6233,68
540,94	5787,23
541,40	5404,90
541,86	5888,16
542,32	5865,84
542,78	5608,04
543,24	6630,35
543,69	5371,27
544,15	6497,00
544,61	5946,46
545,07	5683,97
545,53	5658,33
545,99	5959,79
546,45	5745,93
546,91	5896,82
547,37	5896,82
547,83	5881,17
548,29	5646,01
548,74	5614,03
549,20	5437,53
549,66	6491,00
550,12	5613,03
550,58	5402,90
551,04	5877,17
551,50	5766,91
551,96	6377,33
552,42	5827,53
552,87	5535,10
553,33	5869,17
553,79	5653,00
554,25	5460,18
554,71	5812,21
555,17	5753,92
555,63	6338,00
556,08	5789,89
556,54	6200,69
557,00	5237,76
557,46	5858,51
557,92	6505,00
558,38	5588,06
558,83	5680,64
559,29	5548,76
559,75	5495,48
560,21	5497,47
560,67	5739,26
561,13	5651,33
561,58	5773,91
562,04	5548,43
562,50	5529,78
562,96	5713,62
563,42	6101,39
563,87	5442,20
564,33	5787,23
564,79	5629,35
565,25	5644,34
565,71	5781,57
566,16	6111,05
566,62	5664,32
567,08	5548,09
567,54	5799,22
568,00	6001,77
568,45	5564,41
568,91	5679,31
569,37	5919,14
569,83	5743,59
570,28	5738,60
570,74	5976,78
571,20	5941,47
571,66	5692,30
572,11	5830,20
572,57	5894,49
573,03	5572,07
573,49	5580,06
573,94	5786,90
574,40	6197,03
574,86	6028,75
575,32	5420,89
575,77	5809,21
576,23	5224,44
576,69	6149,04
577,15	5648,67
577,60	5627,02
578,06	5428,21
578,52	6178,03
578,97	5677,65
579,43	5548,43
579,89	5790,56
580,34	5827,20
580,80	5712,95
581,26	5737,27
581,72	5799,55
582,17	5670,32
582,63	5427,55
583,09	5691,63
583,54	5872,51
584,00	5687,97
584,46	5938,80
584,91	5528,78
585,37	6670,03
585,83	5649,34
586,28	5652,33
586,74	5680,64
587,20	5648,00
587,65	6005,10
588,11	5397,58
588,57	5872,51
589,02	5693,30
589,48	5557,42
589,94	5869,51
590,39	5984,11
590,85	5583,73
591,30	5368,61
591,76	6248,68
592,22	5593,38
592,67	5850,52
593,13	5749,59
593,59	6024,42
594,04	5728,27
594,50	5667,99
594,95	6174,03
595,41	5649,34
595,87	5488,48
596,32	6263,34
596,78	6011,10
597,23	6125,05
597,69	5755,92
598,15	5368,61
598,60	5704,96
599,06	6182,36
599,51	5593,38
599,97	5882,83
600,43	6120,38
600,88	5864,84
601,34	5964,79
601,79	5316,67
602,25	6730,05
602,70	5654,66
603,16	5736,60
603,61	5448,52
604,07	5312,00
604,53	5971,45
604,98	5653,33
605,44	5923,48
605,89	5815,54
606,35	5378,60
606,80	5723,61
607,26	5629,35
607,71	5822,20
608,17	5906,15
608,62	5757,58
609,08	6631,02
609,53	6016,09
609,99	5703,29
610,44	5592,05
610,90	5797,56
611,35	5474,16
611,81	6397,66
612,26	5949,46
612,72	5800,55
613,17	6886,46
613,63	5392,58
614,08	5397,58
614,54	5431,21
614,99	5401,91
615,45	5683,64
615,90	5733,93
616,36	5465,51
616,81	5642,67
617,27	5713,62
617,72	5999,10
618,18	5527,45
618,63	5709,95
619,09	5630,02
619,54	5944,13
619,99	5699,96
620,45	5966,78
620,90	6116,39
621,36	5713,28
621,81	6056,08
622,27	6206,36
622,72	6072,40
623,18	5528,11
623,63	5510,79
624,08	6047,41
624,54	5379,60
624,99	5669,65
625,45	5798,89
625,90	5520,12
626,35	5743,93
626,81	5829,53
627,26	5524,78
627,72	5973,45
628,17	5971,78
628,62	5322,66
629,08	5688,30
629,53	5754,59
629,99	5542,43
630,44	5874,17
630,89	5676,65
631,35	5979,45
631,80	5874,84
632,26	6097,06
632,71	5525,45
633,16	5648,67
633,62	5534,77
634,07	5630,35
634,52	5432,21
634,98	5635,68
635,43	5539,77
635,88	5379,60
636,34	5664,66
636,79	5666,65
637,24	5471,50
637,70	5986,44
638,15	6031,42
638,60	5586,72
639,06	5723,61
639,51	5428,21
639,96	5299,69
640,42	5809,88
640,87	6057,74
641,32	5349,63
641,78	5546,43
642,23	5641,34
642,68	5282,37
643,14	5569,07
643,59	5952,46
644,04	5506,13
644,49	5439,53
644,95	5607,04
645,40	5436,54
645,85	5716,95
646,31	5759,92
646,76	5857,85
647,21	5942,13
647,66	5769,24
648,12	5822,20
648,57	5432,21
649,02	6119,38
649,47	5830,87
649,93	7158,35
650,38	5424,88
650,83	5452,85
651,28	5567,07
651,74	5759,25
652,19	5420,22
652,64	5708,62
653,09	5545,43
653,55	5449,52
654,00	5746,59
654,45	5813,21
654,90	5630,69
655,35	5449,86
655,81	5974,11
656,26	5499,14
656,71	5645,01
657,16	5896,82
657,62	5904,49
658,07	5512,13
658,52	5685,97
658,97	5423,88
659,42	7395,96
659,88	5533,11
660,33	6083,06
660,78	5609,70
661,23	5460,84
661,68	5667,32
662,13	5451,85
662,59	5232,10
663,04	5818,87
663,49	5558,08
663,94	5523,78
664,39	5653,33
664,84	5460,51
665,30	5760,58
665,75	5358,62
666,20	5735,60
666,65	5725,61
667,10	6663,36
667,55	6145,04
668,00	5463,51
668,46	5789,23
668,91	5431,21
669,36	6500,33
669,81	5187,49
670,26	5488,82
670,71	6107,39
671,16	5714,28
671,61	6202,36
672,06	6632,69
672,52	5662,33
672,97	5721,28
673,42	6134,38
673,87	6937,83
674,32	5801,89
674,77	5804,55
675,22	5353,96
675,67	5447,86
676,12	5740,26
676,57	5629,69
677,02	5581,73
677,47	5581,40
677,93	6674,37
678,38	5501,80
678,83	5652,33
679,28	5772,91
679,73	5539,43
680,18	5701,63
680,63	5687,30
681,08	5123,57
681,53	5160,52
681,98	5546,43
682,43	5681,31
682,88	5907,15
683,33	5853,18
683,78	5770,57
684,23	6059,07
684,68	5817,21
685,13	5777,90
685,58	5780,90
686,03	5670,98
686,48	5394,91
686,93	5708,95
687,38	5514,79
687,83	5729,94
688,28	5665,66
688,73	6727,05
689,18	5885,16
689,63	5209,79
690,08	5603,38
690,53	5606,04
690,98	5321,33
691,43	5649,34
691,88	5240,42
692,33	5732,94
692,78	5622,03
693,23	5961,12
693,68	5843,86
694,13	5730,27
694,58	5699,63
695,03	7433,34
695,48	5749,26
695,93	5760,58
696,38	6381,00
696,83	5674,65
697,28	5539,10
697,72	5810,55
698,17	5420,22
698,62	5918,81
699,07	5936,80
699,52	5463,51
699,97	5598,05
700,42	5902,49
700,87	5958,79
701,32	7274,47
701,77	5360,95
702,22	6211,69
702,67	5558,75
703,11	5553,42
703,56	5763,91
704,01	5628,35
704,46	5556,75
704,91	6074,07
705,36	6047,75
705,81	6034,75
706,26	5358,95
706,70	5886,50
707,15	5747,59
707,60	5644,01
708,05	5798,22
708,50	5986,77
708,95	5753,59
709,40	5569,41
709,84	5732,94
710,29	5671,32
710,74	5585,06
711,19	5881,83
711,64	5721,61
712,09	5718,95
712,53	5444,86
712,98	6389,33
713,43	5678,31
713,88	5762,25
714,33	6152,37
714,78	6005,10
715,22	5635,68
715,67	5762,91
716,12	5520,79
716,57	5578,06
717,02	5403,57
717,46	5353,96
717,91	5865,51
718,36	6323,67
718,81	5377,93
719,26	5396,24
719,70	5733,27
720,15	5624,02
720,60	5486,15
721,05	5777,90
721,49	5520,79
721,94	5826,20
722,39	5676,31
722,84	5398,91
723,28	5269,72
723,73	5676,31
724,18	5281,71
724,63	5865,18
725,07	5256,40
725,52	5630,02
725,97	5628,69
726,42	5710,95
726,86	6340,33
727,31	5417,22
727,76	6148,37
728,21	5802,88
728,65	5601,38
729,10	6123,38
729,55	5544,10
729,99	6023,76
730,44	5363,61
730,89	5732,27
731,33	5849,85
731,78	5830,53
732,23	5797,22
732,68	5486,15
733,12	5928,14
733,57	5754,59
734,02	5496,48
734,46	5920,14
734,91	5925,47
735,36	5733,93
735,80	6799,75
736,25	5463,84
736,70	5713,28
737,14	6002,77
737,59	5900,16
738,04	5684,64
738,48	5651,33
738,93	5761,91
739,37	5310,34
739,82	6092,06
740,27	5907,82
740,71	5484,82
741,16	5866,18
741,61	5930,80
742,05	5669,99
742,50	5682,31
742,94	5442,86
743,39	5496,81
743,84	5661,99
744,28	6017,76
744,73	5968,45
745,18	5842,19
745,62	5997,44
746,07	6211,36
746,51	5155,86
746,96	5438,87
747,40	5349,63
747,85	5805,55
748,30	5625,36
748,74	5559,42
749,19	5810,21
749,63	6857,78
750,08	5710,29
750,52	5593,72
750,97	5325,32
751,42	5558,08
751,86	5541,10
752,31	5605,04
752,75	6394,66
753,20	5519,79
753,64	5628,69
754,09	5321,66
754,53	5601,38
754,98	5394,58
755,42	5628,69
755,87	5698,63
756,31	6079,40
756,76	5575,07
757,20	6140,38
757,65	5706,62
758,09	5615,70
758,54	5599,71
758,98	5635,68
759,43	5400,91
759,87	5630,69
760,32	5849,85
760,76	5662,33
761,21	5847,19
761,65	6125,72
762,10	5544,10
762,54	5535,10
762,99	5593,05
763,43	5931,80
763,88	5699,30
764,32	5367,28
764,77	5490,81
765,21	5789,89
765,66	5393,91
766,10	5355,29
766,54	5491,15
766,99	5692,97
767,43	5762,91
767,88	5818,21
768,32	5908,48
768,77	5602,71
769,21	6345,00
769,66	5412,23
770,10	5558,08
770,54	5504,80
770,99	5352,96
771,43	5853,18
771,88	5747,59
772,32	5905,15
772,76	5253,74
773,21	5574,73
773,65	5556,42
774,10	5190,82
774,54	5708,95
774,98	5418,55
775,43	5691,97
775,87	5682,97
776,31	5403,90
776,76	5579,73
777,20	5499,81
777,65	5822,54
778,09	5927,14
778,53	5577,40
778,98	5700,96
779,42	6718,05
779,86	6170,37
780,31	5725,27
780,75	6017,76
781,19	5819,54
781,64	5460,18
782,08	5750,59
782,52	5356,95
782,97	5604,71
783,41	5860,18
783,85	5927,81
784,30	5629,02
784,74	5573,74
785,18	5630,69
785,63	5475,50
786,07	5895,82
786,51	6031,09
786,95	6087,06
787,40	5405,57
787,84	5504,13
788,28	5829,20
788,73	6533,00
789,17	5550,09
789,61	5524,78
790,05	5655,66
790,50	5414,23
790,94	5472,50
791,38	6020,76
791,82	5567,74
792,27	5691,97
792,71	5466,84
793,15	7319,52
793,59	6004,43
794,04	5701,96
794,48	5749,26
794,92	5675,98
795,36	5413,56
795,81	5827,87
796,25	5623,36
796,69	5707,29
797,13	5515,46
797,57	5364,95
798,02	5666,32
798,46	6015,43
798,90	5738,60
799,34	5440,20
799,79	6291,34
800,23	5790,23
800,67	5426,21
801,11	5864,84
801,55	5714,95
801,99	5472,50
802,44	6028,42
802,88	6288,01
803,32	5955,46
803,76	5745,26
804,20	5646,01
804,64	5528,78
805,09	6336,00
805,53	6481,66
805,97	6342,00
806,41	5857,18
806,85	6506,33
807,29	5587,06
807,74	5691,97
808,18	5438,53
808,62	5838,53
809,06	5729,94
809,50	5503,80
809,94	5409,90
810,38	5831,20
810,82	6224,35
811,27	7009,55
811,71	5523,12
812,15	5475,83
812,59	5863,84
813,03	6379,66
813,47	5947,80
813,91	5766,24
814,35	5958,46
814,79	5898,82
815,23	5762,58
815,67	5589,39
816,12	5454,85
816,56	5544,10
817,00	5918,48
817,44	5682,97
817,88	6104,39
818,32	5510,13
818,76	5878,50
819,20	6068,40
819,64	5519,45
820,08	5889,83
820,52	5593,38
820,96	5696,63
821,40	5467,84
821,84	6209,36
822,28	5448,19
822,72	5771,91
823,16	5803,22
823,60	5425,21
824,04	5762,58
824,48	5765,58
824,92	5822,87
825,36	5834,53
825,80	5418,22
826,24	5572,40
826,68	5156,86
827,12	5758,92
827,56	5924,47
828,00	6095,39
828,44	5498,47
828,88	5981,11
829,32	5820,21
829,76	5507,13
830,20	6219,35
830,64	5625,69
831,08	6537,67
831,52	6034,09
831,96	5919,81
832,40	5354,96
832,84	5673,65
833,28	5617,36
833,72	6155,71
834,16	5955,46
834,60	5661,66
835,04	5516,12
835,48	6040,75
835,91	5638,35
836,35	5815,54
836,79	5662,99
837,23	5954,79
837,67	5488,15
838,11	5502,47
838,55	5779,90
838,99	5681,31
839,43	6227,35
839,87	6437,99
840,30	5754,25
840,74	6171,03
841,18	5244,75
841,62	5507,46
842,06	5432,54
842,50	5592,72
842,94	5922,14
843,38	5707,29
843,81	5907,48
844,25	5696,63
844,69	5500,80
845,13	5872,84
845,57	5558,42
846,01	5946,13
846,45	5510,46
846,88	5487,48
847,32	5680,64
847,76	5522,45
848,20	5574,40
848,64	5561,75
849,08	5896,16
849,51	6095,06
849,95	5945,13
850,39	5597,05
850,83	6021,09
851,27	5465,17
851,70	5759,58
852,14	6095,73
852,58	5499,81
853,02	5546,76
853,46	5951,46
853,89	5335,64
854,33	6029,09
854,77	5373,27
855,21	5519,45
855,65	6042,75
856,08	6231,02
856,52	5691,63
856,96	5858,51
857,40	5742,59
857,83	5402,57
858,27	6131,38
858,71	5227,10
859,15	5458,51
859,58	5559,08
860,02	5627,02
860,46	5728,61
860,89	5990,11
861,33	5531,77
861,77	5654,00
862,21	5798,89
862,64	5546,76
863,08	5556,42
863,52	5936,47
863,95	5527,11
864,39	5673,65
864,83	5683,97
865,27	5313,67
865,70	5646,34
866,14	5246,41
866,58	5901,15
867,01	5414,56
867,45	5777,57
867,89	5615,03
868,32	5535,44
868,76	5796,56
869,20	5688,97
869,63	6169,03
870,07	6678,37
870,51	5339,31
870,94	5592,39
871,38	5724,28
871,82	5466,17
872,25	5780,57
872,69	5888,16
873,13	5662,99
873,56	6050,41
874,00	5950,13
874,43	5583,06
874,87	5398,58
875,31	6072,74
875,74	5214,12
876,18	5754,92
876,61	5671,65
877,05	5675,65
877,49	5702,96
877,92	5644,34
878,36	5772,57
878,79	5658,33
879,23	6282,01
879,67	5481,16
880,10	5383,59
880,54	5549,76
880,97	5727,61
881,41	5923,14
881,84	5606,04
882,28	5597,05
882,72	5601,71
883,15	5590,72
883,59	5409,23
884,02	5879,50
884,46	5732,94
884,89	5833,53
885,33	5971,78
885,76	5570,07
886,20	5503,14
886,63	6289,01
887,07	5405,24
887,50	5433,87
887,94	5619,69
888,37	5507,46
888,81	6826,76
889,24	5351,29
889,68	5937,13
890,11	5493,81
890,55	5896,82
890,98	5834,20
891,42	5340,97
891,85	5481,82
892,29	5564,08
892,72	5394,25
893,16	5545,10
893,59	5753,59
894,03	5563,08
894,46	5901,15
894,90	5479,83
895,33	5431,87
895,77	5707,29
896,20	5806,88
896,63	5494,81
897,07	5414,89
897,50	5401,57
897,94	5687,64
898,37	6032,75
898,81	5474,16
899,24	5444,19
899,68	5454,52
900,11	5983,11
900,54	5831,20
900,98	5573,74
901,41	6314,00
901,85	6410,66
902,28	5413,89
902,71	5529,78
903,15	6299,34
903,58	5576,07
904,02	5793,89
904,45	5527,78
904,88	5567,74
905,32	5357,62
905,75	6099,72
906,18	5666,32
906,62	5963,79
907,05	5751,59
907,48	5595,72
907,92	5848,85
908,35	6168,70
908,79	5577,40
909,22	5354,96
909,65	5784,56
910,09	5791,23
910,52	5565,41
910,95	5498,47
911,38	5550,09
911,82	5709,29
912,25	5606,71
912,68	5761,91
913,12	5838,53
913,55	5602,04
913,98	5333,31
914,42	5388,59
914,85	5508,13
915,28	5486,82
915,72	5903,82
916,15	5540,10
916,58	5997,77
917,01	5521,78
917,45	5935,80
917,88	5450,52
918,31	5607,37
918,74	5652,33
919,18	5769,58
919,61	5910,82
920,04	5661,66
920,47	6248,01
920,91	5809,21
921,34	5551,09
921,77	5421,22
922,20	5356,62
922,64	5754,25
923,07	6184,36
923,50	5848,85
923,93	5218,45
924,37	5860,18
924,80	5384,26
925,23	5889,50
925,66	6462,66
926,09	5597,71
926,53	5901,82
926,96	5351,29
927,39	6424,99
927,82	5681,98
928,25	5363,95
928,69	5946,13
929,12	5567,41
929,55	5788,23
929,98	5975,45
930,41	5440,20
930,84	5771,57
931,28	5172,84
931,71	6304,00
932,14	6005,43
932,57	6647,03
933,00	5616,70
933,43	5981,11
933,86	5977,78
934,30	5909,82
934,73	5767,58
935,16	5360,28
935,59	5584,06
936,02	5479,83
936,45	5782,57
936,88	5349,96
937,31	5877,50
937,75	5476,50
938,18	5549,76
938,61	5844,86
939,04	5381,93
939,47	5709,95
939,90	5924,14
940,33	6492,33
940,76	5485,15
941,19	5997,10
941,62	5434,54
942,05	5527,45
942,48	5864,84
942,91	5389,92
943,35	5287,03
943,78	5882,83
944,21	5837,53
944,64	5828,87
945,07	5665,32
945,50	5721,94
945,93	5753,59
946,36	6076,73
946,79	5604,37
947,22	5687,97
947,65	5838,86
948,08	5339,64
948,51	5326,32
948,94	5397,58
949,37	6594,35
949,80	6086,06
950,23	5595,05
950,66	5428,54
951,09	5844,19
951,52	5279,04
951,95	5925,47
952,38	5532,44
952,81	6301,00
953,24	5308,01
953,67	5454,18
954,10	5546,09
954,53	5465,17
954,96	5520,12
955,39	5884,17
955,82	5384,59
956,25	5869,51
956,68	6768,74
957,11	5328,99
957,53	5778,24
957,96	5671,32
958,39	5527,78
958,82	5454,52
959,25	5465,51
959,68	5127,56
960,11	5605,04
960,54	5810,55
960,97	5762,58
961,40	5998,77
961,83	5925,14
962,26	5474,50
962,68	5724,94
963,11	5525,45
963,54	5631,02
963,97	5621,69
964,40	5430,54
964,83	5925,14
965,26	5493,15
965,69	5598,71
966,11	5825,20
966,54	5400,24
966,97	5500,80
967,40	5997,10
967,83	7254,45
968,26	5909,15
968,69	5606,71
969,11	5819,21
969,54	5430,21
969,97	5516,12
970,40	5863,18
970,83	5562,75
971,26	5637,68
971,68	5319,00
972,11	5419,89
972,54	5513,46
972,97	5827,20
973,40	5537,77
973,82	5893,83
974,25	5706,29
974,68	5491,15
975,11	5470,17
975,54	5420,22
975,96	5685,64
976,39	5383,92
976,82	5862,18
977,25	5646,67
977,67	5541,77
978,10	5627,69
978,53	5528,11
978,96	5971,45
979,38	5869,84
979,81	5454,85
980,24	5785,90
980,67	5993,77
981,09	5663,66
981,52	5636,35
981,95	5531,11
982,38	5544,10
982,80	5449,86
983,23	6000,43
983,66	5902,15
984,08	5387,59
984,51	5162,85
984,94	5582,06
985,37	5791,56
985,79	5590,72
986,22	5435,87
986,65	5785,23
987,07	5621,69
987,50	5701,29
987,93	5640,01
988,35	5726,94
988,78	5636,35
989,21	5585,06
989,63	5808,88
990,06	5644,01
990,49	5769,91
990,91	6249,68
991,34	5576,73
991,77	5438,87
992,19	5656,00
992,62	5496,14
993,05	5562,41
993,47	5830,53
993,90	5893,16
994,32	5721,94
994,75	5678,31
995,18	5285,04
995,60	5399,24
996,03	5194,14
996,45	6027,09
996,88	5875,17
997,31	5467,17
997,73	5692,30
998,16	5389,59
998,58	6138,38
999,01	5645,67
999,44	5682,31
999,86	6088,40
1000,29	5391,92
1000,71	5735,60
1001,14	5861,18
1001,56	5662,66
1001,99	5746,93
1002,41	5631,02
1002,84	5859,51
1003,27	5405,90
1003,69	5774,57
1004,12	5747,26
1004,54	6061,07
1004,97	5622,69
1005,39	5340,64
1005,82	5730,60
1006,24	5616,36
1006,67	5436,87
1007,09	5344,63
1007,52	5604,71
1007,94	5498,47
1008,37	7020,89
1008,79	5962,45
1009,22	5913,15
1009,64	5761,25
1010,07	5826,20
1010,49	5984,11
1010,92	5575,73
1011,34	5872,84
1011,77	5659,33
1012,19	5757,58
1012,62	5809,55
1013,04	5396,58
1013,46	6100,06
1013,89	5244,75
1014,31	5921,81
1014,74	5435,54
1015,16	5657,33
1015,59	5385,92
1016,01	5775,90
1016,44	5518,79
1016,86	11462,99
1017,28	5519,79
1017,71	5246,41
1018,13	6685,04
1018,56	6039,42
1018,98	5837,53
1019,40	5544,76
1019,83	5643,34
1020,25	5753,25
1020,68	5799,89
1021,10	5821,21
1021,52	5662,99
1021,95	6957,51
1022,37	6004,77
1022,79	5928,81
1023,22	5847,19
1023,64	5727,27
1024,07	5755,25
1024,49	5865,51
1024,91	5443,20
1025,34	5483,16
1025,76	6525,67
1026,18	5869,17
1026,61	5813,88
1027,03	5698,63
1027,45	5773,91
1027,88	5505,47
1028,30	6471,66
1028,72	5724,61
1029,15	5653,67
1029,57	5808,88
1029,99	6206,02
1030,41	5336,64
1030,84	5759,58
1031,26	5927,81
1031,68	5560,75
1032,11	5979,78
1032,53	5489,15
1032,95	5449,86
1033,37	5814,88
1033,80	5985,11
1034,22	5543,10
1034,64	6329,33
1035,06	5510,79
1035,49	5511,13
1035,91	5727,61
1036,33	5290,03
1036,75	5900,16
1037,18	5979,78
1037,60	5937,80
1038,02	6027,42
1038,44	6164,37
1038,87	5582,39
1039,29	5615,03
1039,71	5780,57
1040,13	5559,42
1040,55	6225,69
1040,98	6080,40
1041,40	5901,49
1041,82	6035,75
1042,24	5655,66
1042,66	6009,10
1043,09	5427,21
1043,51	5619,69
1043,93	5583,39
1044,35	5342,64
1044,77	5720,28
1045,20	5837,19
1045,62	5437,53
1046,04	5770,24
1046,46	5997,77
1046,88	5429,21
1047,30	5995,77
1047,72	5906,82
1048,15	5976,45
1048,57	5654,66
1048,99	5634,68
1049,41	5797,89
1049,83	5953,79
1050,25	6379,33
1050,67	6093,39
1051,09	5734,93
1051,52	5813,54
1051,94	5140,21
1052,36	5714,28
1052,78	5249,74
1053,20	5626,36
1053,62	5471,83
1054,04	5787,90
1054,46	5872,17
1054,88	6309,67
1055,30	6080,73
1055,72	6015,76
1056,14	5802,55
1056,57	7143,66
1056,99	5442,20
1057,41	5876,84
1057,83	5934,80
1058,25	5565,74
1058,67	5601,38
1059,09	5525,11
1059,51	5959,46
1059,93	5689,30
1060,35	5594,72
1060,77	5936,80
1061,19	6158,04
1061,61	5753,92
1062,03	5642,34
1062,45	5488,82
1062,87	5905,15
1063,29	5998,10
1063,71	5614,70
1064,13	5474,16
1064,55	5284,37
1064,97	6027,09
1065,39	5711,62
1065,81	5676,65
1066,23	5770,24
1066,65	5580,40
1067,07	6287,01
1067,49	5726,61
1067,91	5557,08
1068,33	5372,60
1068,75	5982,11
1069,17	6084,06
1069,59	5998,44
1070,00	5599,38
1070,42	5881,83
1070,84	5539,43
1071,26	5427,55
1071,68	5304,35
1072,10	5869,17
1072,52	5620,36
1072,94	5344,30
1073,36	5453,52
1073,78	5545,10
1074,20	5734,93
1074,62	5508,80
1075,03	5414,23
1075,45	5620,36
1075,87	5998,77
1076,29	5574,40
1076,71	5938,13
1077,13	6253,35
1077,55	5196,81
1077,97	5726,61
1078,38	5573,07
1078,80	5638,01
1079,22	5864,84
1079,64	5682,64
1080,06	5609,04
1080,48	5796,89
1080,89	5670,98
1081,31	5612,37
1081,73	5686,97
1082,15	5684,97
1082,57	5955,79
1082,99	5689,97
1083,40	5564,74
1083,82	6111,05
1084,24	5444,86
1084,66	5528,44
1085,08	5786,56
1085,49	5261,06
1085,91	5925,14
1086,33	14513,90
1086,75	5762,25
1087,17	5484,82
1087,58	5540,43
1088,00	5580,06
1088,42	6029,09
1088,84	5605,71
1089,25	5411,23
1089,67	5583,39
1090,09	5592,72
1090,51	5477,16
1090,92	5814,54
1091,34	5559,08
1091,76	5690,30
1092,18	5597,71
1092,59	5648,00
1093,01	5574,07
1093,43	5651,00
1093,84	5439,53
1094,26	5645,67
1094,68	5802,22
1095,10	5362,61
1095,51	5636,68
1095,93	5478,49
1096,35	5866,18
1096,76	5784,56
1097,18	5814,21
1097,60	5594,72
1098,01	5520,79
1098,43	5428,21
1098,85	5562,75
1099,26	5537,77
1099,68	5632,02
1100,10	5312,00
1100,51	5473,17
1100,93	5575,07
1101,35	5671,32
1101,76	5688,64
1102,18	7849,07
1102,60	6039,08
1103,01	5092,61
1103,43	5666,32
1103,84	5516,12
1104,26	5456,18
1104,68	5533,44
1105,09	5111,25
1105,51	5201,14
1105,92	5936,47
1106,34	5190,82
1106,76	5751,59
1107,17	5681,64
1107,59	5703,63
1108,00	5126,90
1108,42	5484,49
1108,83	5168,84
1109,25	5461,18
1109,67	5212,12
1110,08	5245,42
1110,50	5121,57
1110,91	5375,93
1111,33	5256,07
1111,74	5198,14
1112,16	5487,48
1112,57	5577,07
1112,99	5325,66
1113,41	5391,25
1113,82	5300,02
1114,24	5539,43
1114,65	5369,94
1115,07	5251,74
1115,48	5226,44
1115,90	2102,19
1116,31	2168,71
1116,73	2163,39
1117,14	2165,38
>>>>>End Processed Spectral Data<<<<<
