SpectraSuite Data File
++++++++++++++++++++++++++++++++++++
Date: Mon Mar 10 17:50:13 EET 2014
User: OO Maya
Dark Spectrum Present: No
Reference Spectrum Present: No
Number of Sampled Component Spectra: 1
Spectrometers: MAYP11278
Integration Time (usec): 3000000 (MAYP11278)
Spectra Averaged: 6 (MAYP11278)
Boxcar Smoothing: 0 (MAYP11278)
Correct for Electrical Dark: No (MAYP11278)
Strobe/Lamp Enabled: No (MAYP11278)
Correct for Detector Non-linearity: No (MAYP11278)
Correct for Stray Light: No (MAYP11278)
Number of Pixels in Processed Spectrum: 2068
>>>>>Begin Processed Spectral Data<<<<<
188,05	2308,17
188,53	2223,67
189,01	2195,17
189,49	2193,67
189,96	7059,50
190,44	7416,33
190,92	7459,50
191,40	7532,17
191,88	7839,83
192,36	7464,83
192,83	7340,83
193,31	7151,50
193,79	7478,83
194,27	7381,17
194,75	7567,00
195,23	7352,83
195,70	7745,17
196,18	7369,00
196,66	7465,33
197,14	8341,33
197,62	7488,50
198,09	7225,33
198,57	7369,17
199,05	7258,00
199,53	7603,17
200,01	7788,67
200,48	7399,67
200,96	7415,50
201,44	7785,00
201,92	7776,17
202,39	7689,83
202,87	7233,33
203,35	7624,50
203,83	7313,33
204,31	7797,00
204,78	7926,83
205,26	7364,50
205,74	7388,50
206,22	7995,83
206,69	7418,17
207,17	7687,17
207,65	8431,83
208,13	7560,67
208,60	7772,33
209,08	7460,33
209,56	7867,17
210,04	7748,83
210,51	7548,33
210,99	7525,50
211,47	7710,33
211,94	7556,17
212,42	7380,50
212,90	8189,00
213,38	7784,33
213,85	7432,83
214,33	8139,67
214,81	7660,67
215,29	8091,00
215,76	7683,50
216,24	7797,50
216,72	7858,50
217,19	7817,33
217,67	7410,00
218,15	7563,83
218,62	7995,33
219,10	7229,50
219,58	7410,83
220,05	7460,33
220,53	7578,17
221,01	9030,83
221,49	7424,67
221,96	7894,33
222,44	7446,67
222,92	7913,83
223,39	7509,00
223,87	7902,00
224,35	7618,50
224,82	7514,83
225,30	7354,50
225,78	7592,00
226,25	7417,00
226,73	7667,17
227,21	7994,50
227,68	7588,67
228,16	7779,00
228,63	7879,33
229,11	7786,00
229,59	7571,67
230,06	7650,17
230,54	7487,83
231,02	7884,83
231,49	7949,33
231,97	7661,83
232,45	7715,17
232,92	7386,50
233,40	7687,33
233,87	7749,00
234,35	8798,50
234,83	7747,50
235,30	7484,50
235,78	7451,00
236,25	7306,00
236,73	7974,50
237,21	8331,67
237,68	7496,33
238,16	7739,33
238,63	7688,00
239,11	7744,33
239,59	7700,50
240,06	7297,67
240,54	7854,83
241,01	8059,67
241,49	7713,33
241,96	7573,50
242,44	7912,67
242,92	8083,33
243,39	7324,83
243,87	7486,17
244,34	7987,00
244,82	8116,00
245,29	7576,67
245,77	8131,50
246,24	8044,33
246,72	7481,00
247,20	7692,17
247,67	7661,83
248,15	7788,00
248,62	7841,17
249,10	7232,50
249,57	7714,50
250,05	7934,33
250,52	7774,50
251,00	8165,00
251,47	7726,67
251,95	8363,67
252,42	8107,33
252,90	7568,17
253,37	8077,33
253,85	7734,00
254,32	7682,17
254,80	7773,00
255,27	7775,83
255,75	7976,67
256,22	7571,50
256,70	7771,67
257,17	7853,50
257,65	8051,00
258,12	8699,50
258,60	7738,50
259,07	7530,33
259,55	7762,50
260,02	7869,83
260,50	8278,67
260,97	7646,33
261,45	7579,83
261,92	8086,17
262,40	7452,67
262,87	7804,17
263,35	7737,50
263,82	7305,83
264,30	7970,67
264,77	8048,33
265,25	7600,83
265,72	7758,33
266,19	7816,67
266,67	7934,00
267,14	7639,17
267,62	7665,00
268,09	7747,83
268,57	7871,33
269,04	7226,50
269,51	7469,00
269,99	7563,17
270,46	7928,50
270,94	8069,33
271,41	7619,67
271,89	7741,50
272,36	7365,33
272,83	7363,50
273,31	7150,50
273,78	7731,00
274,26	8937,67
274,73	7933,33
275,20	7991,50
275,68	7535,67
276,15	7690,67
276,63	7835,83
277,10	7978,33
277,57	7397,50
278,05	7714,00
278,52	7424,17
279,00	9060,83
279,47	7652,83
279,94	7545,00
280,42	8995,33
280,89	8034,00
281,36	8785,17
281,84	7483,67
282,31	8110,33
282,78	7631,67
283,26	7672,50
283,73	7880,17
284,21	7453,33
284,68	7409,00
285,15	7951,17
285,63	7687,00
286,10	7834,17
286,57	7778,00
287,05	7322,00
287,52	7860,00
287,99	8265,67
288,47	7617,50
288,94	7944,17
289,41	7166,00
289,89	8186,50
290,36	7468,50
290,83	7845,83
291,30	7573,83
291,78	7914,83
292,25	8473,67
292,72	7485,83
293,20	8049,67
293,67	7610,33
294,14	7910,83
294,62	7842,00
295,09	7528,50
295,56	7726,67
296,03	7778,50
296,51	8340,83
296,98	8247,50
297,45	7915,33
297,93	7887,00
298,40	7856,67
298,87	7580,83
299,34	8249,67
299,82	7727,50
300,29	7876,33
300,76	7599,17
301,23	8117,50
301,71	7999,67
302,18	8010,50
302,65	7470,50
303,12	7984,00
303,60	8050,17
304,07	7508,00
304,54	7648,00
305,01	7481,17
305,49	7786,83
305,96	7891,67
306,43	7860,67
306,90	7928,50
307,38	7676,50
307,85	7587,50
308,32	7808,67
308,79	7630,17
309,27	8032,00
309,74	8062,67
310,21	7830,50
310,68	7817,00
311,15	7898,33
311,63	7524,67
312,10	8085,33
312,57	7729,17
313,04	8371,83
313,51	7604,17
313,99	7670,50
314,46	7782,50
314,93	7592,67
315,40	7536,00
315,87	8058,67
316,34	7935,17
316,82	7850,50
317,29	7947,00
317,76	7846,67
318,23	8717,33
318,70	7760,83
319,17	7700,50
319,65	7364,17
320,12	7872,33
320,59	8386,33
321,06	8002,50
321,53	7673,17
322,00	7217,33
322,48	7473,67
322,95	8339,50
323,42	7630,17
323,89	8547,17
324,36	7383,50
324,83	7830,33
325,30	7756,50
325,78	7689,83
326,25	7704,83
326,72	7608,17
327,19	7977,67
327,66	7878,33
328,13	7898,67
328,60	7829,33
329,07	7661,00
329,54	7620,83
330,02	7636,67
330,49	7494,50
330,96	7999,83
331,43	7928,50
331,90	8331,83
332,37	7515,17
332,84	8431,50
333,31	7992,50
333,78	7956,50
334,25	8186,17
334,72	7885,67
335,20	7952,00
335,67	8981,67
336,14	7441,83
336,61	7708,17
337,08	7631,50
337,55	7859,50
338,02	7628,17
338,49	7640,33
338,96	8274,83
339,43	8060,67
339,90	7462,83
340,37	7560,67
340,84	7444,50
341,31	7943,67
341,78	8046,17
342,25	7555,50
342,72	7840,67
343,19	7997,67
343,67	7797,67
344,14	7650,50
344,61	7753,83
345,08	7494,33
345,55	7731,17
346,02	7969,17
346,49	7599,00
346,96	7537,67
347,43	8292,83
347,90	7595,33
348,37	8093,83
348,84	7793,50
349,31	7378,17
349,78	7806,83
350,25	8041,83
350,72	7795,67
351,19	7495,83
351,66	7839,33
352,13	8377,83
352,60	7839,83
353,07	7686,00
353,54	7800,33
354,01	7984,00
354,48	7910,50
354,94	8012,67
355,41	7835,17
355,88	8335,17
356,35	7533,67
356,82	8310,50
357,29	7456,67
357,76	8547,17
358,23	7956,67
358,70	7424,83
359,17	7449,50
359,64	7619,67
360,11	7637,33
360,58	8027,67
361,05	8235,83
361,52	7670,00
361,99	7723,50
362,46	7772,83
362,93	7708,17
363,39	7738,83
363,86	8566,50
364,33	7991,83
364,80	7595,50
365,27	7947,50
365,74	7613,83
366,21	7393,17
366,68	7783,67
367,15	7771,67
367,62	14051,17
368,09	7115,17
368,55	7471,50
369,02	8065,50
369,49	7446,33
369,96	8068,50
370,43	7856,17
370,90	7612,83
371,37	7612,67
371,84	7954,33
372,31	7547,17
372,77	7331,17
373,24	7641,00
373,71	7773,50
374,18	7408,67
374,65	7486,83
375,12	7817,83
375,59	7301,67
376,05	8317,50
376,52	7621,17
376,99	7463,83
377,46	7416,33
377,93	7881,33
378,40	7832,50
378,86	7766,00
379,33	7755,33
379,80	7768,00
380,27	7982,67
380,74	8285,67
381,21	7824,33
381,67	8359,67
382,14	8361,83
382,61	7478,17
383,08	8028,00
383,55	7860,67
384,02	8366,17
384,48	8119,50
384,95	9956,67
385,42	8295,83
385,89	8249,50
386,36	8517,17
386,82	9407,17
387,29	8760,67
387,76	8916,33
388,23	9908,17
388,69	10047,83
389,16	10707,83
389,63	10527,33
390,10	11331,83
390,57	11642,00
391,03	12037,67
391,50	12300,17
391,97	12541,33
392,44	12866,33
392,90	12888,17
393,37	13091,33
393,84	14198,33
394,31	13481,67
394,77	14000,50
395,24	13586,17
395,71	14088,00
396,18	15636,00
396,64	13745,17
397,11	14298,17
397,58	14448,50
398,05	13912,33
398,51	14169,83
398,98	14042,17
399,45	13912,17
399,92	14495,17
400,38	13700,33
400,85	13885,17
401,32	13604,33
401,78	13671,83
402,25	13446,83
402,72	13143,83
403,18	12680,00
403,65	13217,17
404,12	12358,83
404,59	12643,83
405,05	12578,83
405,52	12195,00
405,99	11252,17
406,45	11634,00
406,92	11306,00
407,39	11717,33
407,85	10841,33
408,32	10713,00
408,79	10785,17
409,25	10107,17
409,72	10706,33
410,19	9933,00
410,65	10522,33
411,12	9827,50
411,59	10358,17
412,05	9761,00
412,52	9271,67
412,99	9836,50
413,45	9522,83
413,92	9616,00
414,39	9638,50
414,85	9898,67
415,32	9198,67
415,78	9785,50
416,25	9261,50
416,72	9184,50
417,18	9686,17
417,65	9124,67
418,12	8868,50
418,58	8952,67
419,05	8892,17
419,51	9062,17
419,98	8580,33
420,45	8994,67
420,91	8379,33
421,38	8631,00
421,84	8480,50
422,31	8761,50
422,78	8431,17
423,24	8509,00
423,71	8703,50
424,17	8783,17
424,64	8494,17
425,11	8795,83
425,57	8471,33
426,04	8893,00
426,50	8352,50
426,97	8850,83
427,43	8635,67
427,90	8737,00
428,37	8078,17
428,83	8735,00
429,30	8529,33
429,76	8386,17
430,23	8436,83
430,69	9452,17
431,16	7947,83
431,62	8211,50
432,09	8899,17
432,55	8634,50
433,02	8277,33
433,48	8085,50
433,95	8260,50
434,42	8179,33
434,88	8511,00
435,35	7938,67
435,81	8501,00
436,28	8328,67
436,74	7904,00
437,21	8522,50
437,67	8351,67
438,14	8318,33
438,60	8027,83
439,07	8110,50
439,53	9612,50
440,00	8337,50
440,46	8512,17
440,93	8648,17
441,39	7995,00
441,86	8092,00
442,32	9124,67
442,79	7947,33
443,25	8254,17
443,72	8282,83
444,18	7837,33
444,64	8751,50
445,11	8407,00
445,57	8226,50
446,04	8208,83
446,50	8331,33
446,97	8138,83
447,43	8225,83
447,90	8036,00
448,36	7980,83
448,83	8375,17
449,29	8383,17
449,75	8103,33
450,22	7943,33
450,68	7829,17
451,15	7961,00
451,61	8221,50
452,08	8423,17
452,54	7881,50
453,00	8528,17
453,47	8110,67
453,93	8134,00
454,40	8194,33
454,86	8295,50
455,32	7961,33
455,79	8167,67
456,25	8478,50
456,72	8006,17
457,18	8643,17
457,64	8056,33
458,11	8160,17
458,57	7827,33
459,04	8230,00
459,50	8138,00
459,96	8220,00
460,43	8020,00
460,89	7861,00
461,36	8669,67
461,82	8471,50
462,28	7949,83
462,75	7782,33
463,21	8567,17
463,67	8081,17
464,14	8238,17
464,60	8255,00
465,06	7913,50
465,53	8049,33
465,99	8545,83
466,45	8183,50
466,92	8339,50
467,38	8355,00
467,84	8165,33
468,31	8307,17
468,77	8363,83
469,23	8205,33
469,70	7936,33
470,16	8349,33
470,62	8238,00
471,09	8092,17
471,55	8153,50
472,01	7988,33
472,48	8078,50
472,94	8164,83
473,40	8734,33
473,87	8229,00
474,33	7971,83
474,79	8245,33
475,25	7952,33
475,72	8378,00
476,18	8279,67
476,64	8396,00
477,11	8231,67
477,57	8354,50
478,03	8812,50
478,49	8437,83
478,96	8693,83
479,42	8116,67
479,88	8958,33
480,35	8523,83
480,81	8461,67
481,27	8222,17
481,73	8357,67
482,20	8464,17
482,66	8062,00
483,12	8350,17
483,58	8041,67
484,05	8331,83
484,51	8992,00
484,97	8548,67
485,43	8425,17
485,89	7991,17
486,36	8397,67
486,82	8014,17
487,28	8640,67
487,74	8128,17
488,21	8137,00
488,67	8326,83
489,13	8584,50
489,59	8583,00
490,05	8859,50
490,52	8258,00
490,98	8595,17
491,44	8221,67
491,90	8420,33
492,36	8134,33
492,83	8983,50
493,29	8721,83
493,75	8705,67
494,21	8410,00
494,67	8548,67
495,14	8508,83
495,60	8408,00
496,06	8764,67
496,52	8581,33
496,98	8680,50
497,44	9389,00
497,91	9173,00
498,37	8578,17
498,83	8821,83
499,29	8726,50
499,75	9687,00
500,21	8874,00
500,67	8698,17
501,14	8835,50
501,60	8753,17
502,06	9073,50
502,52	8941,83
502,98	8914,83
503,44	8968,17
503,90	9087,83
504,37	8814,50
504,83	9109,00
505,29	9154,17
505,75	8788,50
506,21	9025,33
506,67	9357,83
507,13	9025,67
507,59	9309,50
508,05	9221,33
508,51	8940,00
508,98	8909,67
509,44	8698,50
509,90	9091,83
510,36	9117,67
510,82	8983,50
511,28	9629,33
511,74	9691,17
512,20	9019,00
512,66	8823,17
513,12	9070,50
513,58	9469,67
514,04	8781,17
514,51	9619,00
514,97	9989,67
515,43	8923,67
515,89	9450,33
516,35	9767,33
516,81	9750,33
517,27	10301,83
517,73	9570,83
518,19	9453,17
518,65	10760,00
519,11	9489,17
519,57	9329,50
520,03	9206,83
520,49	9386,00
520,95	9617,33
521,41	9808,50
521,87	9862,67
522,33	9621,33
522,79	9272,67
523,25	10260,33
523,71	9979,50
524,17	9560,17
524,63	10250,83
525,09	9933,33
525,55	9931,33
526,01	10209,67
526,47	9927,83
526,93	9787,33
527,39	9690,00
527,85	9788,67
528,31	10120,83
528,77	10070,50
529,23	9781,17
529,69	9577,17
530,15	10072,50
530,61	10146,50
531,07	9480,33
531,53	10322,33
531,99	9950,17
532,45	9945,00
532,91	9966,83
533,37	10145,50
533,83	9928,50
534,29	9656,50
534,75	9927,83
535,21	9848,67
535,67	10068,83
536,12	9883,17
536,58	10218,00
537,04	9823,67
537,50	10245,83
537,96	10062,17
538,42	10109,00
538,88	10686,67
539,34	10334,50
539,80	12076,00
540,26	9800,67
540,72	10712,83
541,18	10250,67
541,63	9826,50
542,09	10367,50
542,55	10350,00
543,01	10046,50
543,47	11158,00
543,93	9880,00
544,39	10928,50
544,85	10475,17
545,31	10178,67
545,76	10207,83
546,22	10577,50
546,68	10279,67
547,14	10404,67
547,60	10588,17
548,06	10370,00
548,52	10202,50
548,98	10177,33
549,43	10050,33
549,89	11083,83
550,35	10222,50
550,81	10001,17
551,27	10465,83
551,73	10351,50
552,19	11014,33
552,64	10421,33
553,10	10064,50
553,56	10496,17
554,02	10241,67
554,48	10081,17
554,93	10471,00
555,39	10465,33
555,85	10977,83
556,31	10409,50
556,77	10797,67
557,23	9893,00
557,68	10455,50
558,14	11153,50
558,60	10315,50
559,06	10258,50
559,52	10145,83
559,97	10124,00
560,43	10121,17
560,89	10387,67
561,35	10241,17
561,81	10381,50
562,26	10224,33
562,72	10136,83
563,18	10402,17
563,64	10739,33
564,09	10106,17
564,55	10470,83
565,01	10252,50
565,47	10297,50
565,92	10450,17
566,38	10697,00
566,84	10230,50
567,30	10164,17
567,75	10370,83
568,21	10667,00
568,67	10161,33
569,13	10321,33
569,58	10561,67
570,04	10388,83
570,50	10346,83
570,96	10564,50
571,41	10566,50
571,87	10287,67
572,33	10383,33
572,78	10473,67
573,24	10098,33
573,70	10083,83
574,16	10294,17
574,61	10708,50
575,07	10606,67
575,53	9953,00
575,98	10353,17
576,44	9754,00
576,90	10632,17
577,36	10128,00
577,81	10154,50
578,27	9898,33
578,73	10725,67
579,18	10252,83
579,64	10043,50
580,10	10324,17
580,55	10331,17
581,01	10225,33
581,47	10217,67
581,92	10308,33
582,38	10158,83
582,84	9870,00
583,29	10192,00
583,75	10286,33
584,21	10100,00
584,66	10425,50
585,12	9999,50
585,57	11059,67
586,03	10081,83
586,49	10073,17
586,94	10108,00
587,40	10094,00
587,86	10460,83
588,31	9755,17
588,77	10252,83
589,22	10066,67
589,68	9826,50
590,14	10222,83
590,59	10335,17
591,05	9935,00
591,51	9641,83
591,96	10486,33
592,42	9847,00
592,87	10166,50
593,33	9979,33
593,78	10328,67
594,24	10011,50
594,70	9941,67
595,15	10414,50
595,61	9860,83
596,06	9661,50
596,52	10429,17
596,98	10262,33
597,43	10334,83
597,89	10004,33
598,34	9522,00
598,80	9912,83
599,25	10321,67
599,71	9705,67
600,16	10081,50
600,62	10213,67
601,08	10055,00
601,53	10118,50
601,99	9483,33
602,44	10910,33
602,90	9708,50
603,35	9823,83
603,81	9373,50
604,26	9331,17
604,72	9963,83
605,17	9659,50
605,63	9947,33
606,08	9804,50
606,54	9319,83
606,99	9745,17
607,45	9610,17
607,90	9734,83
608,36	9922,50
608,81	9674,00
609,27	10555,83
609,72	9935,83
610,18	9565,17
610,63	9442,17
611,09	9737,00
611,54	9274,67
612,00	10214,67
612,45	9811,17
612,91	9630,83
613,36	10712,83
613,82	9211,00
614,27	9193,83
614,73	9225,67
615,18	9181,00
615,64	9466,00
616,09	9506,00
616,54	9233,50
617,00	9434,83
617,45	9467,33
617,91	9732,17
618,36	9279,17
618,82	9322,17
619,27	9395,50
619,72	9707,33
620,18	9332,17
620,63	9737,33
621,09	9784,67
621,54	9424,00
622,00	9714,50
622,45	9845,17
622,90	9747,33
623,36	9176,33
623,81	9161,33
624,27	9725,50
624,72	8951,17
625,17	9342,50
625,63	9466,67
626,08	9015,17
626,54	9253,83
626,99	9366,50
627,44	8969,83
627,90	9502,17
628,35	9520,67
628,81	8765,00
629,26	9186,17
629,71	9259,33
630,17	9031,83
630,62	9351,67
631,07	9214,17
631,53	9439,00
631,98	9326,50
632,43	9564,00
632,89	8970,50
633,34	8998,00
633,79	8914,83
634,25	8959,50
634,70	8840,83
635,15	9031,17
635,61	8919,67
636,06	8716,83
636,51	9106,33
636,97	9035,50
637,42	8773,67
637,87	9245,83
638,33	9396,83
638,78	8857,00
639,23	9040,17
639,69	8729,83
640,14	8513,67
640,59	9076,17
641,05	9286,67
641,50	8586,00
641,95	8806,00
642,40	8869,83
642,86	8493,00
643,31	8780,83
643,76	9137,17
644,22	8750,67
644,67	8566,50
645,12	8759,83
645,57	8604,50
646,03	8854,50
646,48	8931,00
646,93	9038,00
647,38	9081,17
647,84	8923,17
648,29	8932,83
648,74	8504,67
649,19	9264,83
649,65	8958,67
650,10	10326,67
650,55	8481,50
651,00	8543,00
651,46	8577,33
651,91	8889,17
652,36	8455,17
652,81	8691,00
653,27	8620,17
653,72	8512,50
654,17	8733,33
654,62	8830,50
655,07	8611,67
655,53	8371,00
655,98	8912,33
656,43	8461,67
656,88	8679,17
657,33	8867,00
657,79	8843,33
658,24	8401,00
658,69	8687,50
659,14	8339,17
659,59	10186,17
660,05	8470,50
660,50	8970,17
660,95	8551,50
661,40	8328,67
661,85	8579,83
662,30	8309,67
662,76	8099,17
663,21	8667,67
663,66	8450,83
664,11	8383,00
664,56	8449,67
665,01	8200,83
665,47	8538,17
665,92	8105,67
666,37	8565,50
666,82	8553,00
667,27	9420,33
667,72	8971,67
668,17	8247,00
668,62	8620,83
669,08	8208,00
669,53	9291,50
669,98	8009,33
670,43	8215,67
670,88	8813,67
671,33	8440,00
671,78	9004,83
672,23	9289,00
672,69	8427,00
673,14	8414,33
673,59	8811,33
674,04	9631,17
674,49	8474,33
674,94	8526,83
675,39	7971,67
675,84	8056,00
676,29	8417,17
676,74	8321,50
677,19	8264,33
677,64	8297,17
678,10	9282,17
678,55	8155,33
679,00	8275,17
679,45	8389,17
679,90	8121,17
680,35	8278,83
680,80	8300,67
681,25	7719,50
681,70	7773,83
682,15	8163,83
682,60	8244,67
683,05	8490,00
683,50	8426,17
683,95	8397,67
684,40	8650,50
684,85	8455,67
685,30	8302,33
685,75	8369,33
686,20	8195,83
686,65	7957,00
687,10	8290,50
687,55	8051,83
688,00	8244,50
688,45	8169,00
688,90	9231,50
689,35	8437,33
689,80	7734,67
690,25	8074,17
690,70	8223,00
691,15	7733,00
691,60	8145,50
692,05	7757,00
692,50	8209,17
692,95	8064,67
693,40	8331,67
693,85	8351,83
694,30	8139,33
694,75	8261,33
695,20	9792,00
695,65	8195,83
696,10	8205,83
696,55	8802,67
697,00	8084,50
697,45	7947,67
697,90	8273,50
698,35	7911,33
698,80	8377,33
699,24	8334,00
699,69	7957,17
700,14	7987,00
700,59	8318,33
701,04	8377,00
701,49	9521,00
701,94	7729,83
702,39	8587,83
702,84	7848,67
703,29	7955,50
703,74	8136,33
704,19	7999,67
704,63	7890,33
705,08	8466,33
705,53	8430,33
705,98	8448,50
706,43	7704,17
706,88	8272,83
707,33	8066,83
707,78	8015,00
708,22	8151,17
708,67	8301,17
709,12	8102,67
709,57	7873,50
710,02	8018,33
710,47	7997,33
710,92	7808,33
711,37	8167,00
711,81	8078,50
712,26	8051,17
712,71	7750,67
713,16	8744,33
713,61	7991,17
714,06	8052,83
714,50	8499,33
714,95	8356,83
715,40	7936,67
715,85	7998,00
716,30	7840,50
716,75	7853,00
717,19	7657,17
717,64	7564,50
718,09	8170,67
718,54	8556,83
718,99	7658,17
719,43	7623,67
719,88	7989,50
720,33	7904,67
720,78	7715,83
721,23	8063,33
721,67	7792,17
722,12	8155,00
722,57	7882,50
723,02	7576,67
723,47	7508,00
723,91	7997,00
724,36	7421,83
724,81	8115,17
725,26	7457,67
725,70	7877,00
726,15	7814,50
726,60	7916,00
727,05	8583,83
727,49	7624,17
727,94	8404,50
728,39	8072,67
728,84	7776,00
729,28	8354,67
729,73	7721,33
730,18	8206,50
730,63	7574,50
731,07	7924,50
731,52	8029,67
731,97	7981,33
732,41	8019,50
732,86	7625,33
733,31	8103,17
733,76	7944,17
734,20	7672,67
734,65	8121,17
735,10	8090,00
735,54	7898,17
735,99	8877,17
736,44	7594,67
736,89	7871,17
737,33	8160,83
737,78	8082,17
738,23	7887,33
738,67	7770,83
739,12	7899,33
739,57	7489,83
740,01	8240,00
740,46	8038,33
740,91	7575,00
741,35	7989,17
741,80	8059,33
742,25	7830,83
742,69	7888,83
743,14	7533,67
743,59	7575,67
744,03	7776,33
744,48	8213,00
744,92	8168,50
745,37	8019,50
745,82	8089,83
746,26	8300,50
746,71	7207,33
747,16	7532,00
747,60	7445,33
748,05	8030,33
748,49	7776,50
748,94	7684,67
749,39	7931,00
749,83	8860,17
750,28	7817,67
750,73	7750,17
751,17	7436,33
751,62	7661,50
752,06	7638,83
752,51	7756,00
752,95	8507,67
753,40	7610,83
753,85	7768,67
754,29	7416,00
754,74	7679,00
755,18	7487,33
755,63	7706,17
756,07	7804,00
756,52	8199,33
756,97	7661,00
757,41	8240,83
757,86	7813,83
758,30	7707,83
758,75	7739,00
759,19	7791,00
759,64	7477,17
760,08	7686,83
760,53	7908,83
760,98	7734,00
761,42	7997,00
761,87	8219,67
762,31	7671,17
762,76	7364,50
763,20	7666,67
763,65	8048,50
764,09	7700,83
764,54	7432,00
764,98	7568,33
765,43	7929,33
765,87	7465,33
766,32	7454,67
766,76	7564,67
767,21	7752,50
767,65	7770,33
768,10	7857,00
768,54	7994,17
768,99	7711,67
769,43	8447,17
769,88	7480,00
770,32	7736,33
770,77	7520,33
771,21	7465,00
771,65	7935,00
772,10	7785,50
772,54	7821,00
772,99	7344,67
773,43	7627,67
773,88	7654,17
774,32	7200,83
774,77	7725,67
775,21	7521,33
775,65	7819,33
776,10	7737,33
776,54	7412,17
776,99	7650,00
777,43	7647,83
777,88	7858,33
778,32	7934,67
778,76	7614,83
779,21	7757,17
779,65	8810,00
780,10	8274,33
780,54	7751,33
780,99	8073,00
781,43	7948,00
781,87	7516,83
782,32	7802,00
782,76	7410,17
783,20	7605,17
783,65	7930,83
784,09	8008,00
784,54	7654,50
784,98	7589,83
785,42	7596,33
785,87	7485,67
786,31	7927,17
786,75	8124,17
787,20	8103,00
787,64	7417,33
788,09	7483,17
788,53	7782,50
788,97	7490,17
789,42	7587,50
789,86	7567,50
790,30	7736,33
790,75	7421,67
791,19	7493,50
791,63	8122,17
792,08	7596,67
792,52	7712,50
792,96	7551,00
793,41	9265,33
793,85	8138,33
794,29	7760,50
794,74	7796,50
795,18	7732,67
795,62	7404,17
796,06	7857,17
796,51	7640,50
796,95	7723,00
797,39	7541,50
797,84	7366,00
798,28	7664,67
798,72	8073,33
799,16	7751,67
799,61	7390,33
800,05	8297,33
800,49	7844,00
800,94	7448,83
801,38	7841,33
801,82	7768,00
802,26	7413,00
802,71	8066,33
803,15	8341,50
803,59	7941,50
804,03	7775,67
804,48	7649,67
804,92	7564,50
805,36	8318,00
805,80	8511,83
806,25	8344,17
806,69	7934,83
807,13	8461,83
807,57	7612,83
808,01	7743,17
808,46	7398,67
808,90	7865,00
809,34	7733,83
809,78	7528,67
810,23	7411,00
810,67	7858,17
811,11	8170,33
811,55	9004,00
811,99	7558,83
812,44	7489,00
812,88	7913,67
813,32	8345,83
813,76	8027,50
814,20	7731,67
814,64	8006,00
815,09	7920,33
815,53	7794,00
815,97	7537,50
816,41	7412,33
816,85	7547,17
817,29	7986,83
817,74	7653,67
818,18	8052,67
818,62	7530,00
819,06	7941,00
819,50	8060,17
819,94	7601,67
820,39	7827,33
820,83	7534,00
821,27	7712,00
821,71	7444,50
822,15	8252,17
822,59	7389,50
823,03	7737,17
823,47	7769,50
823,92	7383,50
824,36	7728,00
824,80	7662,33
825,24	7775,00
825,68	7815,17
826,12	7417,83
826,56	7532,17
827,00	7146,83
827,44	7664,83
827,88	7938,67
828,33	8123,67
828,77	7507,17
829,21	7979,50
829,65	7817,83
830,09	7502,67
830,53	8290,67
830,97	7553,17
831,41	8565,50
831,85	8054,50
832,29	7893,17
832,73	7302,33
833,17	7642,50
833,61	7600,83
834,05	8220,67
834,49	7882,50
834,93	7646,83
835,37	7537,83
835,82	8058,50
836,26	7629,67
836,70	7759,67
837,14	7679,17
837,58	8015,50
838,02	7467,67
838,46	7495,17
838,90	7781,83
839,34	7660,00
839,78	8218,67
840,22	8511,00
840,66	7736,00
841,10	8122,50
841,54	7150,00
841,98	7468,83
842,42	7284,67
842,86	7573,67
843,30	7944,17
843,74	7693,67
844,18	7949,00
844,62	7689,67
845,06	7405,17
845,50	7904,17
845,94	7616,50
846,37	7939,50
846,81	7476,83
847,25	7450,00
847,69	7682,00
848,13	7432,50
848,57	7576,83
849,01	7529,17
849,45	7865,00
849,89	8131,33
850,33	7904,33
850,77	7545,17
851,21	7996,00
851,65	7398,50
852,09	7798,17
852,53	8033,50
852,97	7503,33
853,40	7531,33
853,84	7946,17
854,28	7310,00
854,72	7972,17
855,16	7272,33
855,60	7463,50
856,04	8039,50
856,48	8231,17
856,92	7629,17
857,36	7838,00
857,79	7689,50
858,23	7337,00
858,67	8137,17
859,11	7187,17
859,55	7398,83
859,99	7543,00
860,43	7656,33
860,87	7748,67
861,30	7852,33
861,74	7499,33
862,18	7676,00
862,62	7789,17
863,06	7470,00
863,50	7511,83
863,94	7930,50
864,37	7444,50
864,81	7642,00
865,25	7614,67
865,69	7305,00
866,13	7637,50
866,57	7167,67
867,00	7902,00
867,44	7380,17
867,88	7777,33
868,32	7619,50
868,76	7520,50
869,19	7760,33
869,63	7632,50
870,07	8203,50
870,51	8578,83
870,95	7282,50
871,38	7589,00
871,82	7681,33
872,26	7414,67
872,70	7717,50
873,14	7831,50
873,57	7589,33
874,01	8064,83
874,45	7933,33
874,89	7567,00
875,32	7331,00
875,76	8065,17
876,20	7175,00
876,64	7784,00
877,07	7614,00
877,51	7619,00
877,95	7668,67
878,39	7596,50
878,82	7690,17
879,26	7569,33
879,70	8261,17
880,14	7392,50
880,57	7315,00
881,01	7521,33
881,45	7663,33
881,89	7860,17
882,32	7612,00
882,76	7622,50
883,20	7551,50
883,63	7579,33
884,07	7326,67
884,51	7867,17
884,94	7664,17
885,38	7799,33
885,82	7929,00
886,26	7535,50
886,69	7416,33
887,13	8253,00
887,57	7377,00
888,00	7349,17
888,44	7635,83
888,88	7481,83
889,31	8759,67
889,75	7263,83
890,19	7933,17
890,62	7426,17
891,06	7844,83
891,50	7812,33
891,93	7246,67
892,37	7461,83
892,81	7535,50
893,24	7327,67
893,68	7515,17
894,11	7709,67
894,55	7491,83
894,99	7871,17
895,42	7559,33
895,86	7376,17
896,30	7672,33
896,73	7782,00
897,17	7384,33
897,60	7306,83
898,04	7399,50
898,48	7717,50
898,91	8028,17
899,35	7373,17
899,78	7425,00
900,22	7445,00
900,66	7970,67
901,09	7817,83
901,53	7540,50
901,96	8332,67
902,40	8412,33
902,84	7359,67
903,27	7516,83
903,71	8294,17
904,14	7368,67
904,58	7783,33
905,01	7437,17
905,45	7502,83
905,88	7321,50
906,32	8041,33
906,76	7622,00
907,19	8001,50
907,63	7747,33
908,06	7567,83
908,50	7862,17
908,93	8186,50
909,37	7534,00
909,80	7227,50
910,24	7722,00
910,67	7783,50
911,11	7556,67
911,54	7423,50
911,98	7502,50
912,41	7702,67
912,85	7522,33
913,28	7787,83
913,72	7787,67
914,15	7590,00
914,59	7276,00
915,02	7330,00
915,46	7484,17
915,89	7431,50
916,33	7959,50
916,76	7508,83
917,20	7986,00
917,63	7482,00
918,07	7955,50
918,50	7388,67
918,94	7577,50
919,37	7544,17
919,81	7803,00
920,24	7949,67
920,67	7648,83
921,11	8230,00
921,54	7784,50
921,98	7501,67
922,41	7312,83
922,85	7278,17
923,28	7712,17
923,72	8149,83
924,15	7834,17
924,58	7213,33
925,02	7834,00
925,45	7344,67
925,89	7926,17
926,32	8457,67
926,75	7535,67
927,19	7861,00
927,62	7261,00
928,06	8451,83
928,49	7629,33
928,92	7323,00
929,36	8004,17
929,79	7501,33
930,23	7726,00
930,66	7942,67
931,09	7427,83
931,53	7818,17
931,96	7165,17
932,39	8250,83
932,83	7959,50
933,26	8688,83
933,70	7598,67
934,13	7999,83
934,56	7978,33
935,00	7849,50
935,43	7710,83
935,86	7308,50
936,30	7560,17
936,73	7410,33
937,16	7775,83
937,60	7319,83
938,03	7838,33
938,46	7460,83
938,90	7521,50
939,33	7817,00
939,76	7339,50
940,19	7629,33
940,63	8022,17
941,06	8380,50
941,49	7446,83
941,93	8002,17
942,36	7401,83
942,79	7479,67
943,23	7865,83
943,66	7283,33
944,09	7245,67
944,52	7831,83
944,96	7791,17
945,39	7813,00
945,82	7639,67
946,26	7719,50
946,69	7711,33
947,12	8079,17
947,55	7664,00
947,99	7660,67
948,42	7830,17
948,85	7243,83
949,28	7279,83
949,72	7320,67
950,15	8613,83
950,58	8077,33
951,01	7562,33
951,45	7528,50
951,88	7784,50
952,31	7312,33
952,74	7934,50
953,17	7510,00
953,61	8314,00
954,04	7243,17
954,47	7426,17
954,90	7518,67
955,33	7464,33
955,77	7518,50
956,20	7786,17
956,63	7384,83
957,06	7857,17
957,49	8676,17
957,93	7298,17
958,36	7786,33
958,79	7672,33
959,22	7497,17
959,65	7456,50
960,08	7455,33
960,52	7103,67
960,95	7546,50
961,38	7845,83
961,81	7799,83
962,24	7967,33
962,67	7885,17
963,11	7421,33
963,54	7639,50
963,97	7480,17
964,40	7676,33
964,83	7599,00
965,26	7427,17
965,69	7894,17
966,13	7491,00
966,56	7593,00
966,99	7811,50
967,42	7404,33
967,85	7435,17
968,28	8047,50
968,71	9135,50
969,14	7820,17
969,57	7558,33
970,01	7773,67
970,44	7351,67
970,87	7468,67
971,30	7759,33
971,73	7455,33
972,16	7611,50
972,59	7299,17
973,02	7381,00
973,45	7536,67
973,88	7794,83
974,31	7501,83
974,74	7836,67
975,17	7737,17
975,61	7397,83
976,04	7473,17
976,47	7444,67
976,90	7674,50
977,33	7318,33
977,76	7830,83
978,19	7623,50
978,62	7527,67
979,05	7555,33
979,48	7494,50
979,91	7929,67
980,34	7824,67
980,77	7433,17
981,20	7765,33
981,63	7960,17
982,06	7566,83
982,49	7595,83
982,92	7462,00
983,35	7508,00
983,78	7418,00
984,21	7948,00
984,64	7864,00
985,07	7251,33
985,50	7143,33
985,93	7576,33
986,36	7885,83
986,79	7545,33
987,22	7379,50
987,65	7781,67
988,08	7566,00
988,51	7643,50
988,94	7564,00
989,37	7687,33
989,80	7595,33
990,23	7521,67
990,66	7722,00
991,09	7615,50
991,51	7692,17
991,94	8285,00
992,37	7469,67
992,80	7375,33
993,23	7567,00
993,66	7345,67
994,09	7475,50
994,52	7770,83
994,95	7855,00
995,38	7685,33
995,81	7669,50
996,24	7215,67
996,67	7296,83
997,09	7087,50
997,52	7974,33
997,95	7882,33
998,38	7437,50
998,81	7678,17
999,24	7332,00
999,67	8128,33
1000,10	7584,00
1000,53	7649,00
1000,95	8036,50
1001,38	7334,67
1001,81	7675,00
1002,24	7834,17
1002,67	7619,50
1003,10	7688,50
1003,53	7613,67
1003,95	7843,50
1004,38	7345,83
1004,81	7715,67
1005,24	7642,17
1005,67	8150,33
1006,10	7510,00
1006,52	7260,50
1006,95	7723,50
1007,38	7581,83
1007,81	7421,00
1008,24	7194,83
1008,67	7516,17
1009,09	7450,00
1009,52	8963,83
1009,95	8005,00
1010,38	7893,00
1010,81	7706,00
1011,23	7784,33
1011,66	7948,67
1012,09	7603,67
1012,52	7840,00
1012,95	7624,33
1013,37	7745,67
1013,80	7824,67
1014,23	7308,83
1014,66	8072,83
1015,08	7211,33
1015,51	7916,83
1015,94	7357,83
1016,37	7654,17
1016,80	7292,67
1017,22	7739,00
1017,65	7507,33
1018,08	16089,00
1018,51	7410,67
1018,93	7182,33
1019,36	8659,17
1019,79	8025,33
1020,21	7847,17
1020,64	7535,00
1021,07	7639,33
1021,50	7664,67
1021,92	7730,33
1022,35	7777,00
1022,78	7618,00
1023,21	8970,33
1023,63	8019,33
1024,06	8006,33
1024,49	7906,33
1024,91	7689,33
1025,34	7778,67
1025,77	7911,17
1026,19	7442,67
1026,62	7353,17
1027,05	8496,00
1027,47	7888,17
1027,90	7786,17
1028,33	7669,33
1028,75	7711,83
1029,18	7472,00
1029,61	8500,67
1030,03	7679,17
1030,46	7634,67
1030,89	7737,67
1031,31	8132,83
1031,74	7289,67
1032,17	7675,00
1032,59	7895,33
1033,02	7522,00
1033,45	7972,33
1033,87	7393,33
1034,30	7379,00
1034,73	7770,00
1035,15	7938,17
1035,58	7504,33
1036,00	8208,33
1036,43	7466,67
1036,86	7502,17
1037,28	7682,00
1037,71	7243,00
1038,13	7955,83
1038,56	7989,83
1038,99	7873,67
1039,41	7980,83
1039,84	8237,83
1040,26	7599,33
1040,69	7588,00
1041,11	7778,67
1041,54	7545,67
1041,97	8118,67
1042,39	8094,83
1042,82	7850,00
1043,24	7995,50
1043,67	7652,67
1044,09	7965,67
1044,52	7398,83
1044,95	7585,00
1045,37	7530,50
1045,80	7365,00
1046,22	7708,33
1046,65	7867,17
1047,07	7418,17
1047,50	7802,50
1047,92	7971,67
1048,35	7360,50
1048,77	8006,17
1049,20	7909,00
1049,62	7917,67
1050,05	7588,50
1050,47	7582,00
1050,90	7823,17
1051,32	7987,50
1051,75	8073,33
1052,17	8035,17
1052,60	7724,83
1053,02	7864,00
1053,45	7100,83
1053,87	7686,17
1054,30	7174,83
1054,72	7586,83
1055,15	7463,83
1055,57	7765,00
1056,00	7825,33
1056,42	8370,50
1056,85	8013,17
1057,27	8086,00
1057,70	7721,83
1058,12	9128,33
1058,54	7383,33
1058,97	7787,83
1059,39	7934,83
1059,82	7546,83
1060,24	7557,83
1060,67	7510,00
1061,09	7937,83
1061,51	7725,67
1061,94	7553,83
1062,36	7949,33
1062,79	8179,50
1063,21	7757,00
1063,64	7610,83
1064,06	7451,50
1064,48	7971,33
1064,91	7989,00
1065,33	7567,17
1065,76	7443,33
1066,18	7288,67
1066,60	7977,50
1067,03	7672,33
1067,45	7625,33
1067,87	7779,50
1068,30	7552,33
1068,72	8352,17
1069,15	7701,50
1069,57	7559,00
1069,99	7269,33
1070,42	7966,17
1070,84	8040,17
1071,26	8009,00
1071,69	7567,67
1072,11	7893,17
1072,53	7589,00
1072,96	7381,50
1073,38	7282,67
1073,80	7919,17
1074,23	7563,00
1074,65	7312,00
1075,07	7501,67
1075,50	7537,00
1075,92	7691,00
1076,34	7436,50
1076,77	7408,50
1077,19	7622,83
1077,61	7959,50
1078,04	7555,67
1078,46	7910,83
1078,88	8172,83
1079,30	7118,17
1079,73	7715,83
1080,15	7503,83
1080,57	7625,50
1081,00	7811,00
1081,42	7611,50
1081,84	7544,83
1082,26	7771,33
1082,69	7622,33
1083,11	7600,50
1083,53	7647,17
1083,95	7662,33
1084,38	7989,67
1084,80	7627,17
1085,22	7597,33
1085,64	8033,83
1086,07	7407,33
1086,49	7531,83
1086,91	7748,00
1087,33	7193,67
1087,76	7889,50
1088,18	17254,00
1088,60	7729,00
1089,02	7448,50
1089,45	7476,33
1089,87	7580,17
1090,29	7993,33
1090,71	7633,17
1091,13	7326,00
1091,56	7534,00
1091,98	7559,50
1092,40	7448,00
1092,82	7627,00
1093,24	7507,00
1093,66	7643,00
1094,09	7494,50
1094,51	7625,17
1094,93	7543,50
1095,35	7663,33
1095,77	7472,83
1096,19	7671,50
1096,62	7758,33
1097,04	7315,33
1097,46	7593,17
1097,88	7533,00
1098,30	7830,00
1098,72	7822,67
1099,15	7811,33
1099,57	7554,83
1099,99	7523,33
1100,41	7381,67
1100,83	7523,00
1101,25	7498,17
1101,67	7619,00
1102,09	7322,33
1102,52	7441,83
1102,94	7542,00
1103,36	7586,50
1103,78	7676,17
1104,20	7463,17
1104,62	8228,67
1105,04	7000,17
1105,46	7681,17
1105,88	7542,83
1106,30	7415,33
1106,73	7573,67
1107,15	7003,17
1107,57	7173,00
1107,99	7920,00
1108,41	7211,00
1108,83	7722,00
1109,25	7651,50
1109,67	7687,33
1110,09	7104,17
1110,51	7410,83
1110,93	7117,17
1111,35	7366,17
1111,77	7142,67
1112,19	7217,17
1112,61	7039,00
1113,03	7378,17
1113,45	7228,17
1113,87	7187,00
1114,29	7484,67
1114,71	7638,17
1115,13	7281,67
1115,55	7396,00
1115,98	7308,67
1116,40	7590,50
1116,82	7471,67
1117,24	7318,50
1117,66	7138,83
1118,08	2084,00
1118,50	2201,50
1118,91	2196,17
1119,33	2194,83
>>>>>End Processed Spectral Data<<<<<
