SpectraSuite Data File
++++++++++++++++++++++++++++++++++++
Date: Thu Nov 17 10:18:16 EET 2016
User: OO Maya
Dark Spectrum Present: No
Reference Spectrum Present: No
Number of Sampled Component Spectra: 1
Spectrometers: MAYP11278
Integration Time (usec): 60000 (MAYP11278)
Spectra Averaged: 1 (MAYP11278)
Boxcar Smoothing: 0 (MAYP11278)
Correct for Electrical Dark: No (MAYP11278)
Strobe/Lamp Enabled: No (MAYP11278)
Correct for Detector Non-linearity: No (MAYP11278)
Correct for Stray Light: No (MAYP11278)
Number of Pixels in Processed Spectrum: 2068
>>>>>Begin Processed Spectral Data<<<<<
187,82	2312,00
188,30	2225,00
188,78	2198,00
189,26	2195,00
189,73	2304,00
190,21	2307,00
190,69	2304,00
191,17	2315,00
191,64	2315,00
192,12	2302,00
192,60	2303,00
193,07	2316,00
193,55	2313,00
194,03	2302,00
194,51	2305,00
194,98	2316,00
195,46	2318,00
195,94	2311,00
196,42	2315,00
196,89	2326,00
197,37	2309,00
197,85	2303,00
198,32	2316,00
198,80	2312,00
199,28	2313,00
199,76	2317,00
200,23	2299,00
200,71	2311,00
201,19	2324,00
201,66	2318,00
202,14	2318,00
202,62	2303,00
203,09	2319,00
203,57	2305,00
204,05	2324,00
204,53	2334,00
205,00	2303,00
205,48	2317,00
205,96	2335,00
206,43	2315,00
206,91	2312,00
207,39	2326,00
207,86	2316,00
208,34	2318,00
208,82	2306,00
209,29	2308,00
209,77	2315,00
210,25	2320,00
210,72	2317,00
211,20	2309,00
211,68	2308,00
212,15	2310,00
212,63	2318,00
213,11	2312,00
213,58	2316,00
214,06	2330,00
214,53	2318,00
215,01	2327,00
215,49	2314,00
215,96	2314,00
216,44	2317,00
216,92	2319,00
217,39	2320,00
217,87	2307,00
218,35	2324,00
218,82	2313,00
219,30	2313,00
219,77	2301,00
220,25	2308,00
220,73	2326,00
221,20	2312,00
221,68	2326,00
222,15	2311,00
222,63	2328,00
223,11	2317,00
223,58	2325,00
224,06	2314,00
224,53	2314,00
225,01	2293,00
225,49	2311,00
225,96	2309,00
226,44	2312,00
226,91	2318,00
227,39	2310,00
227,87	2324,00
228,34	2320,00
228,82	2323,00
229,29	2319,00
229,77	2320,00
230,24	2308,00
230,72	2319,00
231,20	2325,00
231,67	2324,00
232,15	2308,00
232,62	2306,00
233,10	2313,00
233,57	2321,00
234,05	2343,00
234,53	2331,00
235,00	2314,00
235,48	2314,00
235,95	2306,00
236,43	2314,00
236,90	2329,00
237,38	2327,00
237,85	2319,00
238,33	2314,00
238,80	2319,00
239,28	2305,00
239,75	2310,00
240,23	2309,00
240,71	2318,00
241,18	2314,00
241,66	2317,00
242,13	2330,00
242,61	2309,00
243,08	2310,00
243,56	2306,00
244,03	2319,00
244,51	2338,00
244,98	2310,00
245,46	2338,00
245,93	2642,00
246,41	2308,00
246,88	2317,00
247,36	2318,00
247,83	2324,00
248,31	2311,00
248,78	2308,00
249,26	2320,00
249,73	2330,00
250,21	2320,00
250,68	2322,00
251,16	2331,00
251,63	2323,00
252,10	2337,00
252,58	2319,00
253,05	2327,00
253,53	2320,00
254,00	2313,00
254,48	2322,00
254,95	2319,00
255,43	2330,00
255,90	2312,00
256,38	2317,00
256,85	2329,00
257,33	2329,00
257,80	2331,00
258,27	2324,00
258,75	2307,00
259,22	2317,00
259,70	2322,00
260,17	2334,00
260,65	2321,00
261,12	2327,00
261,59	2319,00
262,07	2315,00
262,54	2316,00
263,02	2328,00
263,49	2316,00
263,97	2313,00
264,44	2321,00
264,91	2319,00
265,39	2313,00
265,86	2315,00
266,34	2322,00
266,81	2308,00
267,28	2321,00
267,76	2327,00
268,23	2313,00
268,71	2311,00
269,18	2302,00
269,65	2310,00
270,13	2331,00
270,60	2335,00
271,08	2322,00
271,55	2322,00
272,02	2322,00
272,50	2323,00
272,97	2309,00
273,44	2320,00
273,92	2340,00
274,39	2329,00
274,87	2321,00
275,34	2311,00
275,81	2321,00
276,29	2332,00
276,76	2329,00
277,23	2317,00
277,71	2320,00
278,18	2317,00
278,65	2346,00
279,13	2320,00
279,60	2320,00
280,07	2338,00
280,55	2326,00
281,02	2337,00
281,50	2315,00
281,97	2321,00
282,44	2316,00
282,91	2312,00
283,39	2311,00
283,86	2322,00
284,33	2323,00
284,81	2329,00
285,28	2319,00
285,75	2319,00
286,23	2331,00
286,70	2302,00
287,17	2314,00
287,65	2330,00
288,12	2310,00
288,59	2306,00
289,07	2308,00
289,54	2332,00
290,01	2311,00
290,48	2331,00
290,96	2310,00
291,43	2318,00
291,90	2324,00
292,38	2310,00
292,85	2337,00
293,32	2313,00
293,79	2326,00
294,27	2312,00
294,74	2307,00
295,21	2317,00
295,69	2308,00
296,16	2324,00
296,63	2332,00
297,10	2331,00
297,58	2318,00
298,05	2321,00
298,52	2315,00
298,99	2326,00
299,47	2323,00
299,94	2314,00
300,41	2321,00
300,88	2323,00
301,36	2327,00
301,83	2314,00
302,30	2311,00
302,77	2319,00
303,25	2332,00
303,72	2310,00
304,19	2310,00
304,66	2323,00
305,13	2322,00
305,61	2323,00
306,08	2314,00
306,55	2324,00
307,02	2321,00
307,49	2315,00
307,97	2326,00
308,44	2311,00
308,91	2322,00
309,38	2331,00
309,86	2323,00
310,33	2327,00
310,80	2317,00
311,27	2320,00
311,74	2318,00
312,21	2314,00
312,69	2335,00
313,16	2316,00
313,63	2321,00
314,10	2323,00
314,57	2322,00
315,05	2322,00
315,52	2338,00
315,99	2330,00
316,46	2331,00
316,93	2337,00
317,40	2313,00
317,88	2353,00
318,35	2323,00
318,82	2308,00
319,29	2307,00
319,76	2321,00
320,23	2337,00
320,70	2313,00
321,18	2321,00
321,65	2309,00
322,12	2319,00
322,59	2326,00
323,06	2322,00
323,53	2330,00
324,00	2309,00
324,48	2313,00
324,95	2318,00
325,42	2309,00
325,89	2311,00
326,36	2314,00
326,83	2311,00
327,30	2329,00
327,77	2317,00
328,24	2333,00
328,72	2322,00
329,19	2325,00
329,66	2322,00
330,13	2316,00
330,60	2320,00
331,07	2308,00
331,54	2328,00
332,01	2322,00
332,48	2330,00
332,95	2324,00
333,43	2316,00
333,90	2321,00
334,37	2325,00
334,84	2316,00
335,31	2355,00
335,78	2319,00
336,25	2322,00
336,72	2315,00
337,19	2320,00
337,66	2325,00
338,13	2312,00
338,60	2336,00
339,07	2328,00
339,54	2302,00
340,01	2315,00
340,49	2302,00
340,96	2317,00
341,43	2331,00
341,90	2308,00
342,37	2320,00
342,84	2320,00
343,31	2330,00
343,78	2304,00
344,25	2323,00
344,72	2322,00
345,19	2323,00
345,66	2322,00
346,13	2306,00
346,60	2319,00
347,07	2330,00
347,54	2324,00
348,01	2321,00
348,48	2313,00
348,95	2308,00
349,42	2307,00
349,89	2324,00
350,36	2319,00
350,83	2316,00
351,30	2312,00
351,77	2335,00
352,24	2324,00
352,71	2314,00
353,18	2329,00
353,65	2329,00
354,12	2320,00
354,59	2328,00
355,06	2318,00
355,53	2331,00
356,00	2302,00
356,47	2334,00
356,94	2330,00
357,41	2347,00
357,88	2327,00
358,35	2311,00
358,82	2311,00
359,28	2318,00
359,75	2313,00
360,22	2320,00
360,69	2325,00
361,16	2322,00
361,63	2328,00
362,10	2330,00
362,57	2312,00
363,04	2322,00
363,51	2344,00
363,98	2312,00
364,45	2312,00
364,92	2324,00
365,39	2312,00
365,86	2333,00
366,32	2316,00
366,79	2311,00
367,26	2456,00
367,73	2316,00
368,20	2298,00
368,67	2332,00
369,14	2314,00
369,61	2318,00
370,08	2303,00
370,55	2311,00
371,02	2418,00
371,48	2313,00
371,95	2322,00
372,42	2306,00
372,89	2330,00
373,36	2315,00
373,83	2315,00
374,30	2317,00
374,77	2317,00
375,23	2311,00
375,70	2338,00
376,17	2323,00
376,64	2315,00
377,11	2315,00
377,58	2321,00
378,05	2320,00
378,51	2330,00
378,98	2317,00
379,45	2319,00
379,92	2305,00
380,39	2345,00
380,86	2331,00
381,33	2337,00
381,79	2320,00
382,26	2310,00
382,73	2316,00
383,20	2318,00
383,67	2324,00
384,14	2312,00
384,60	2360,00
385,07	2331,00
385,54	2318,00
386,01	2312,00
386,48	2322,00
386,94	2315,00
387,41	2323,00
387,88	2322,00
388,35	2315,00
388,82	2326,00
389,28	2318,00
389,75	2307,00
390,22	2327,00
390,69	2315,00
391,16	2328,00
391,62	2309,00
392,09	2325,00
392,56	2318,00
393,03	2309,00
393,50	2330,00
393,96	2322,00
394,43	2336,00
394,90	2308,00
395,37	2327,00
395,83	2345,00
396,30	2307,00
396,77	2321,00
397,24	2325,00
397,70	2317,00
398,17	2317,00
398,64	2303,00
399,11	2315,00
399,57	2322,00
400,04	2312,00
400,51	2324,00
400,98	2317,00
401,44	2331,00
401,91	2322,00
402,38	2314,00
402,84	2312,00
403,31	2320,00
403,78	2326,00
404,25	2338,00
404,71	2321,00
405,18	2332,00
405,65	2322,00
406,12	2327,00
406,58	2320,00
407,05	2328,00
407,52	2320,00
407,98	2313,00
408,45	2322,00
408,92	2302,00
409,38	2332,00
409,85	2305,00
410,32	2322,00
410,78	2320,00
411,25	2337,00
411,72	2317,00
412,18	2296,00
412,65	2323,00
413,12	2320,00
413,59	2321,00
414,05	2331,00
414,52	2325,00
414,98	2317,00
415,45	2332,00
415,92	2336,00
416,38	2322,00
416,85	2321,00
417,32	2316,00
417,78	2316,00
418,25	2331,00
418,72	2310,00
419,18	2338,00
419,65	2310,00
420,12	2342,00
420,58	2309,00
421,05	2337,00
421,51	2315,00
421,98	2311,00
422,45	2329,00
422,91	2319,00
423,38	2317,00
423,85	2314,00
424,31	2313,00
424,78	2331,00
425,24	2322,00
425,71	2319,00
426,18	2313,00
426,64	2330,00
427,11	2329,00
427,57	2322,00
428,04	2304,00
428,51	2314,00
428,97	2313,00
429,44	2307,00
429,90	2317,00
430,37	2340,00
430,83	2324,00
431,30	2322,00
431,77	2327,00
432,23	2327,00
432,70	2317,00
433,16	2317,00
433,63	2303,00
434,09	2325,00
434,56	2326,00
435,03	2312,00
435,49	2323,00
435,96	2322,00
436,42	2315,00
436,89	2326,00
437,35	2319,00
437,82	2315,00
438,28	2326,00
438,75	2314,00
439,21	2343,00
439,68	2323,00
440,14	2333,00
440,61	2335,00
441,07	2326,00
441,54	2323,00
442,00	2333,00
442,47	2303,00
442,94	2325,00
443,40	2309,00
443,87	2300,00
444,33	2322,00
444,80	2308,00
445,26	2321,00
445,73	2314,00
446,19	2313,00
446,65	2311,00
447,12	2312,00
447,58	2310,00
448,05	2306,00
448,51	2328,00
448,98	2340,00
449,44	2310,00
449,91	2314,00
450,37	2315,00
450,84	2302,00
451,30	2326,00
451,77	2328,00
452,23	2311,00
452,70	2336,00
453,16	2314,00
453,62	2308,00
454,09	2323,00
454,55	2318,00
455,02	2310,00
455,48	2327,00
455,95	2320,00
456,41	2309,00
456,88	2322,00
457,34	2310,00
457,80	2311,00
458,27	2315,00
458,73	2326,00
459,20	2328,00
459,66	2325,00
460,13	2316,00
460,59	2321,00
461,05	2321,00
461,52	2325,00
461,98	2309,00
462,45	2307,00
462,91	2321,00
463,37	2318,00
463,84	2316,00
464,30	2319,00
464,76	2322,00
465,23	2321,00
465,69	2316,00
466,16	2320,00
466,62	2331,00
467,08	2323,00
467,55	2321,00
468,01	2340,00
468,48	2315,00
468,94	2311,00
469,40	2314,00
469,87	2332,00
470,33	2326,00
470,79	2317,00
471,26	2315,00
471,72	2307,00
472,18	2319,00
472,65	2322,00
473,11	2330,00
473,57	2323,00
474,04	2308,00
474,50	2311,00
474,96	2310,00
475,43	2317,00
475,89	2334,00
476,35	2316,00
476,82	2329,00
477,28	2315,00
477,74	2328,00
478,21	2330,00
478,67	2320,00
479,13	2309,00
479,59	2324,00
480,06	2333,00
480,52	2323,00
480,98	2305,00
481,45	2320,00
481,91	2328,00
482,37	2312,00
482,84	2312,00
483,30	2316,00
483,76	2303,00
484,22	2327,00
484,69	2322,00
485,15	2324,00
485,61	2303,00
486,07	2314,00
486,54	2307,00
487,00	2322,00
487,46	2298,00
487,92	2300,00
488,39	2326,00
488,85	2320,00
489,31	2317,00
489,77	2315,00
490,24	2318,00
490,70	2310,00
491,16	2303,00
491,62	2307,00
492,09	2309,00
492,55	2330,00
493,01	2308,00
493,47	2318,00
493,94	2316,00
494,40	2315,00
494,86	2319,00
495,32	2309,00
495,78	2320,00
496,25	2312,00
496,71	2322,00
497,17	2334,00
497,63	2323,00
498,09	2320,00
498,56	2330,00
499,02	2303,00
499,48	2338,00
499,94	2316,00
500,40	2326,00
500,87	2312,00
501,33	2309,00
501,79	2308,00
502,25	2303,00
502,71	2351,00
503,17	2308,00
503,64	2322,00
504,10	2318,00
504,56	2324,00
505,02	2325,00
505,48	2316,00
505,94	2306,00
506,40	2310,00
506,87	2311,00
507,33	2321,00
507,79	2315,00
508,25	2306,00
508,71	2320,00
509,17	2318,00
509,63	2318,00
510,10	2316,00
510,56	2309,00
511,02	2316,00
511,48	2332,00
511,94	2316,00
512,40	2312,00
512,86	2311,00
513,32	2319,00
513,78	2304,00
514,25	2326,00
514,71	2414,00
515,17	2318,00
515,63	2319,00
516,09	2323,00
516,55	2319,00
517,01	2337,00
517,47	2332,00
517,93	2304,00
518,39	2335,00
518,85	2318,00
519,32	2305,00
519,78	2305,00
520,24	2315,00
520,70	2324,00
521,16	2326,00
521,62	2327,00
522,08	2314,00
522,54	2302,00
523,00	2341,00
523,46	2317,00
523,92	2316,00
524,38	2341,00
524,84	2320,00
525,30	2326,00
525,76	2332,00
526,22	2328,00
526,68	2325,00
527,14	2323,00
527,60	2309,00
528,06	2326,00
528,52	2316,00
528,98	2311,00
529,44	2321,00
529,90	2325,00
530,36	2325,00
530,82	2302,00
531,28	2328,00
531,74	2320,00
532,20	2317,00
532,66	2310,00
533,12	2313,00
533,58	2315,00
534,04	2303,00
534,50	2314,00
534,96	2318,00
535,42	2316,00
535,88	2307,00
536,34	2329,00
536,80	2313,00
537,26	2324,00
537,72	2319,00
538,18	2313,00
538,64	2327,00
539,10	2334,00
539,56	2354,00
540,02	2305,00
540,48	2325,00
540,94	2322,00
541,40	2302,00
541,86	2327,00
542,32	2321,00
542,78	2313,00
543,24	2324,00
543,69	2318,00
544,15	2333,00
544,61	2327,00
545,07	2307,00
545,53	2317,00
545,99	2326,00
546,45	2302,00
546,91	2315,00
547,37	2322,00
547,83	2318,00
548,29	2318,00
548,74	2325,00
549,20	2312,00
549,66	2340,00
550,12	2312,00
550,58	2319,00
551,04	2305,00
551,50	2319,00
551,96	2320,00
552,42	2321,00
552,87	2299,00
553,33	2315,00
553,79	2325,00
554,25	2315,00
554,71	2324,00
555,17	2324,00
555,63	2332,00
556,08	2329,00
556,54	2326,00
557,00	2306,00
557,46	2313,00
557,92	2336,00
558,38	2318,00
558,83	2317,00
559,29	2304,00
559,75	2301,00
560,21	2314,00
560,67	2324,00
561,13	2315,00
561,58	2314,00
562,04	2318,00
562,50	2313,00
562,96	2327,00
563,42	2328,00
563,87	2308,00
564,33	2330,00
564,79	2321,00
565,25	2319,00
565,71	2324,00
566,16	2327,00
566,62	2318,00
567,08	2314,00
567,54	2318,00
568,00	2330,00
568,45	2321,00
568,91	2319,00
569,37	2306,00
569,83	2312,00
570,28	2311,00
570,74	2313,00
571,20	2323,00
571,66	2311,00
572,11	2310,00
572,57	2323,00
573,03	2307,00
573,49	2302,00
573,94	2326,00
574,40	2327,00
574,86	2315,00
575,32	2316,00
575,77	2327,00
576,23	2321,00
576,69	2320,00
577,15	2322,00
577,60	2319,00
578,06	2313,00
578,52	2344,00
578,97	2324,00
579,43	2316,00
579,89	2312,00
580,34	2326,00
580,80	2316,00
581,26	2312,00
581,72	2327,00
582,17	2315,00
582,63	2310,00
583,09	2302,00
583,54	2319,00
584,00	2314,00
584,46	2310,00
584,91	2311,00
585,37	2345,00
585,83	2332,00
586,28	2314,00
586,74	2321,00
587,20	2314,00
587,65	2327,00
588,11	2296,00
588,57	2317,00
589,02	2321,00
589,48	2313,00
589,94	2311,00
590,39	2327,00
590,85	2303,00
591,30	2303,00
591,76	2326,00
592,22	2309,00
592,67	2321,00
593,13	2327,00
593,59	2318,00
594,04	2313,00
594,50	2314,00
594,95	2329,00
595,41	2321,00
595,87	2309,00
596,32	2316,00
596,78	2320,00
597,23	2307,00
597,69	2303,00
598,15	2298,00
598,60	2313,00
599,06	2338,00
599,51	2312,00
599,97	2310,00
600,43	2334,00
600,88	2310,00
601,34	2314,00
601,79	2298,00
602,25	2334,00
602,70	2310,00
603,16	2323,00
603,61	2325,00
604,07	2314,00
604,53	2314,00
604,98	2297,00
605,44	2305,00
605,89	2311,00
606,35	2310,00
606,80	2320,00
607,26	2324,00
607,71	2315,00
608,17	2321,00
608,62	2306,00
609,08	2339,00
609,53	2332,00
609,99	2328,00
610,44	2324,00
610,90	2324,00
611,35	2314,00
611,81	2331,00
612,26	2328,00
612,72	2321,00
613,17	2341,00
613,63	2309,00
614,08	2305,00
614,54	2299,00
614,99	2314,00
615,45	2315,00
615,90	2328,00
616,36	2318,00
616,81	2319,00
617,27	2305,00
617,72	2324,00
618,18	2317,00
618,63	2300,00
619,09	2310,00
619,54	2322,00
619,99	2306,00
620,45	2317,00
620,90	2318,00
621,36	2317,00
621,81	2326,00
622,27	2333,00
622,72	2330,00
623,18	2322,00
623,63	2307,00
624,08	2315,00
624,54	2309,00
624,99	2320,00
625,45	2325,00
625,90	2316,00
626,35	2315,00
626,81	2322,00
627,26	2304,00
627,72	2317,00
628,17	2321,00
628,62	2316,00
629,08	2313,00
629,53	2320,00
629,99	2327,00
630,44	2318,00
630,89	2313,00
631,35	2319,00
631,80	2322,00
632,26	2321,00
632,71	2318,00
633,16	2320,00
633,62	2318,00
634,07	2321,00
634,52	2312,00
634,98	2312,00
635,43	2319,00
635,88	2314,00
636,34	2315,00
636,79	2315,00
637,24	2310,00
637,70	2310,00
638,15	2315,00
638,60	2329,00
639,06	2324,00
639,51	2299,00
639,96	2304,00
640,42	2319,00
640,87	2332,00
641,32	2298,00
641,78	2326,00
642,23	2307,00
642,68	2309,00
643,14	2318,00
643,59	2313,00
644,04	2321,00
644,49	2307,00
644,95	2312,00
645,40	2292,00
645,85	2319,00
646,31	2320,00
646,76	2309,00
647,21	2324,00
647,66	2321,00
648,12	2304,00
648,57	2305,00
649,02	2326,00
649,47	2317,00
649,93	2347,00
650,38	2301,00
650,83	2322,00
651,28	2309,00
651,74	2313,00
652,19	2312,00
652,64	2311,00
653,09	2327,00
653,55	2315,00
654,00	2315,00
654,45	2318,00
654,90	2311,00
655,35	2311,00
655,81	2308,00
656,26	2315,00
656,71	2322,00
657,16	2315,00
657,62	2325,00
658,07	2308,00
658,52	2315,00
658,97	2316,00
659,42	2332,00
659,88	2319,00
660,33	2312,00
660,78	2314,00
661,23	2315,00
661,68	2322,00
662,13	2312,00
662,59	2310,00
663,04	2317,00
663,49	2320,00
663,94	2309,00
664,39	2309,00
664,84	2306,00
665,30	2320,00
665,75	2310,00
666,20	2313,00
666,65	2321,00
667,10	2334,00
667,55	2322,00
668,00	2301,00
668,46	2311,00
668,91	2318,00
669,36	2344,00
669,81	2309,00
670,26	2303,00
670,71	2326,00
671,16	2313,00
671,61	2322,00
672,06	2336,00
672,52	2315,00
672,97	2318,00
673,42	2331,00
673,87	2336,00
674,32	2314,00
674,77	2322,00
675,22	2311,00
675,67	2304,00
676,12	2316,00
676,57	2308,00
677,02	2314,00
677,47	2316,00
677,93	2328,00
678,38	2311,00
678,83	2317,00
679,28	2323,00
679,73	2311,00
680,18	2308,00
680,63	2304,00
681,08	2299,00
681,53	2300,00
681,98	2322,00
682,43	2311,00
682,88	2333,00
683,33	2307,00
683,78	2317,00
684,23	2330,00
684,68	2324,00
685,13	2319,00
685,58	2304,00
686,03	2328,00
686,48	2303,00
686,93	2323,00
687,38	2317,00
687,83	2321,00
688,28	2319,00
688,73	2324,00
689,18	2327,00
689,63	2297,00
690,08	2311,00
690,53	2326,00
690,98	2296,00
691,43	2320,00
691,88	2305,00
692,33	2318,00
692,78	2308,00
693,23	2316,00
693,68	2312,00
694,13	2307,00
694,58	2318,00
695,03	2348,00
695,48	2317,00
695,93	2303,00
696,38	2325,00
696,83	2306,00
697,28	2323,00
697,72	2326,00
698,17	2324,00
698,62	2331,00
699,07	2322,00
699,52	2313,00
699,97	2318,00
700,42	2321,00
700,87	2324,00
701,32	2353,00
701,77	2308,00
702,22	2325,00
702,67	2330,00
703,11	2307,00
703,56	2326,00
704,01	2321,00
704,46	2317,00
704,91	2336,00
705,36	2327,00
705,81	2321,00
706,26	2302,00
706,70	2324,00
707,15	2310,00
707,60	2312,00
708,05	2321,00
708,50	2313,00
708,95	2327,00
709,40	2309,00
709,84	2309,00
710,29	2304,00
710,74	2308,00
711,19	2309,00
711,64	2315,00
712,09	2320,00
712,53	2319,00
712,98	2347,00
713,43	2324,00
713,88	2306,00
714,33	2327,00
714,78	2313,00
715,22	2322,00
715,67	2313,00
716,12	2320,00
716,57	2324,00
717,02	2296,00
717,46	2323,00
717,91	2322,00
718,36	2340,00
718,81	2313,00
719,26	2318,00
719,70	2312,00
720,15	2311,00
720,60	2320,00
721,05	2307,00
721,49	2324,00
721,94	2320,00
722,39	2323,00
722,84	2312,00
723,28	2299,00
723,73	2326,00
724,18	2307,00
724,63	2316,00
725,07	2310,00
725,52	2324,00
725,97	2325,00
726,42	2321,00
726,86	2325,00
727,31	2308,00
727,76	2325,00
728,21	2322,00
728,65	2313,00
729,10	2326,00
729,55	2317,00
729,99	2319,00
730,44	2313,00
730,89	2313,00
731,33	2327,00
731,78	2320,00
732,23	2316,00
732,68	2307,00
733,12	2324,00
733,57	2309,00
734,02	2314,00
734,46	2324,00
734,91	2310,00
735,36	2318,00
735,80	2331,00
736,25	2306,00
736,70	2317,00
737,14	2326,00
737,59	2324,00
738,04	2318,00
738,48	2309,00
738,93	2323,00
739,37	2313,00
739,82	2325,00
740,27	2316,00
740,71	2306,00
741,16	2320,00
741,61	2330,00
742,05	2310,00
742,50	2319,00
742,94	2310,00
743,39	2324,00
743,84	2311,00
744,28	2325,00
744,73	2325,00
745,18	2315,00
745,62	2314,00
746,07	2320,00
746,51	2310,00
746,96	2310,00
747,40	2308,00
747,85	2315,00
748,30	2313,00
748,74	2321,00
749,19	2321,00
749,63	2329,00
750,08	2316,00
750,52	2311,00
750,97	2306,00
751,42	2308,00
751,86	2315,00
752,31	2310,00
752,75	2330,00
753,20	2301,00
753,64	2301,00
754,09	2318,00
754,53	2304,00
754,98	2308,00
755,42	2310,00
755,87	2317,00
756,31	2329,00
756,76	2325,00
757,20	2320,00
757,65	2320,00
758,09	2323,00
758,54	2316,00
758,98	2322,00
759,43	2308,00
759,87	2301,00
760,32	2326,00
760,76	2315,00
761,21	2310,00
761,65	2330,00
762,10	2311,00
762,54	2304,00
762,99	2313,00
763,43	2315,00
763,88	2301,00
764,32	2304,00
764,77	2320,00
765,21	2314,00
765,66	2305,00
766,10	2305,00
766,54	2309,00
766,99	2321,00
767,43	2307,00
767,88	2304,00
768,32	2311,00
768,77	2315,00
769,21	2331,00
769,66	2311,00
770,10	2310,00
770,54	2314,00
770,99	2303,00
771,43	2324,00
771,88	2308,00
772,32	2317,00
772,76	2306,00
773,21	2314,00
773,65	2302,00
774,10	2315,00
774,54	2315,00
774,98	2304,00
775,43	2325,00
775,87	2318,00
776,31	2317,00
776,76	2317,00
777,20	2317,00
777,65	2315,00
778,09	2317,00
778,53	2318,00
778,98	2322,00
779,42	2329,00
779,86	2326,00
780,31	2306,00
780,75	2313,00
781,19	2335,00
781,64	2307,00
782,08	2320,00
782,52	2305,00
782,97	2315,00
783,41	2318,00
783,85	2322,00
784,30	2308,00
784,74	2320,00
785,18	2321,00
785,63	2307,00
786,07	2318,00
786,51	2315,00
786,95	2318,00
787,40	2306,00
787,84	2317,00
788,28	2314,00
788,73	2322,00
789,17	2304,00
789,61	2311,00
790,05	2310,00
790,50	2312,00
790,94	2303,00
791,38	2322,00
791,82	2294,00
792,27	2316,00
792,71	2321,00
793,15	2332,00
793,59	2314,00
794,04	2315,00
794,48	2318,00
794,92	2320,00
795,36	2306,00
795,81	2312,00
796,25	2320,00
796,69	2315,00
797,13	2336,00
797,57	2300,00
798,02	2304,00
798,46	2322,00
798,90	2317,00
799,34	2306,00
799,79	2340,00
800,23	2314,00
800,67	2308,00
801,11	2312,00
801,55	2319,00
801,99	2310,00
802,44	2312,00
802,88	2323,00
803,32	2314,00
803,76	2316,00
804,20	2330,00
804,64	2301,00
805,09	2334,00
805,53	2337,00
805,97	2343,00
806,41	2327,00
806,85	2331,00
807,29	2312,00
807,74	2326,00
808,18	2310,00
808,62	2317,00
809,06	2323,00
809,50	2308,00
809,94	2309,00
810,38	2324,00
810,82	2326,00
811,27	2357,00
811,71	2300,00
812,15	2306,00
812,59	2313,00
813,03	2336,00
813,47	2330,00
813,91	2312,00
814,35	2333,00
814,79	2323,00
815,23	2316,00
815,67	2330,00
816,12	2310,00
816,56	2314,00
817,00	2330,00
817,44	2321,00
817,88	2325,00
818,32	2321,00
818,76	2327,00
819,20	2331,00
819,64	2321,00
820,08	2324,00
820,52	2311,00
820,96	2326,00
821,40	2328,00
821,84	2327,00
822,28	2312,00
822,72	2317,00
823,16	2319,00
823,60	2302,00
824,04	2314,00
824,48	2316,00
824,92	2322,00
825,36	2314,00
825,80	2307,00
826,24	2311,00
826,68	2308,00
827,12	2316,00
827,56	2336,00
828,00	2309,00
828,44	2312,00
828,88	2316,00
829,32	2318,00
829,76	2304,00
830,20	2322,00
830,64	2306,00
831,08	2336,00
831,52	2321,00
831,96	2315,00
832,40	2318,00
832,84	2315,00
833,28	2314,00
833,72	2325,00
834,16	2330,00
834,60	2308,00
835,04	2310,00
835,48	2333,00
835,91	2312,00
836,35	2321,00
836,79	2308,00
837,23	2312,00
837,67	2322,00
838,11	2303,00
838,55	2320,00
838,99	2328,00
839,43	2337,00
839,87	2332,00
840,30	2314,00
840,74	2339,00
841,18	2302,00
841,62	2299,00
842,06	2308,00
842,50	2309,00
842,94	2319,00
843,38	2310,00
843,81	2320,00
844,25	2317,00
844,69	2302,00
845,13	2327,00
845,57	2309,00
846,01	2329,00
846,45	2315,00
846,88	2308,00
847,32	2322,00
847,76	2329,00
848,20	2300,00
848,64	2310,00
849,08	2320,00
849,51	2332,00
849,95	2325,00
850,39	2304,00
850,83	2330,00
851,27	2309,00
851,70	2311,00
852,14	2316,00
852,58	2313,00
853,02	2314,00
853,46	2331,00
853,89	2301,00
854,33	2322,00
854,77	2302,00
855,21	2304,00
855,65	2330,00
856,08	2319,00
856,52	2325,00
856,96	2319,00
857,40	2317,00
857,83	2314,00
858,27	2322,00
858,71	2305,00
859,15	2317,00
859,58	2313,00
860,02	2312,00
860,46	2315,00
860,89	2324,00
861,33	2318,00
861,77	2323,00
862,21	2331,00
862,64	2309,00
863,08	2312,00
863,52	2318,00
863,95	2308,00
864,39	2311,00
864,83	2312,00
865,27	2308,00
865,70	2320,00
866,14	2304,00
866,58	2320,00
867,01	2314,00
867,45	2318,00
867,89	2323,00
868,32	2308,00
868,76	2322,00
869,20	2315,00
869,63	2318,00
870,07	2347,00
870,51	2310,00
870,94	2313,00
871,38	2332,00
871,82	2317,00
872,25	2327,00
872,69	2320,00
873,13	2308,00
873,56	2321,00
874,00	2331,00
874,43	2310,00
874,87	2306,00
875,31	2334,00
875,74	2305,00
876,18	2332,00
876,61	2313,00
877,05	2320,00
877,49	2310,00
877,92	2311,00
878,36	2314,00
878,79	2315,00
879,23	2332,00
879,67	2301,00
880,10	2306,00
880,54	2310,00
880,97	2319,00
881,41	2332,00
881,84	2306,00
882,28	2311,00
882,72	2320,00
883,15	2321,00
883,59	2306,00
884,02	2326,00
884,46	2314,00
884,89	2310,00
885,33	2318,00
885,76	2314,00
886,20	2313,00
886,63	2337,00
887,07	2318,00
887,50	2306,00
887,94	2313,00
888,37	2308,00
888,81	2353,00
889,24	2316,00
889,68	2321,00
890,11	2310,00
890,55	2327,00
890,98	2323,00
891,42	2304,00
891,85	2315,00
892,29	2313,00
892,72	2305,00
893,16	2321,00
893,59	2329,00
894,03	2315,00
894,46	2326,00
894,90	2315,00
895,33	2302,00
895,77	2321,00
896,20	2326,00
896,63	2314,00
897,07	2307,00
897,50	2318,00
897,94	2321,00
898,37	2333,00
898,81	2310,00
899,24	2319,00
899,68	2310,00
900,11	2329,00
900,54	2314,00
900,98	2301,00
901,41	2331,00
901,85	2331,00
902,28	2310,00
902,71	2318,00
903,15	2339,00
903,58	2322,00
904,02	2322,00
904,45	2316,00
904,88	2305,00
905,32	2321,00
905,75	2323,00
906,18	2313,00
906,62	2334,00
907,05	2316,00
907,48	2322,00
907,92	2323,00
908,35	2329,00
908,79	2305,00
909,22	2317,00
909,65	2318,00
910,09	2321,00
910,52	2311,00
910,95	2317,00
911,38	2323,00
911,82	2314,00
912,25	2314,00
912,68	2324,00
913,12	2318,00
913,55	2316,00
913,98	2318,00
914,42	2306,00
914,85	2313,00
915,28	2305,00
915,72	2325,00
916,15	2311,00
916,58	2332,00
917,01	2305,00
917,45	2328,00
917,88	2309,00
918,31	2317,00
918,74	2314,00
919,18	2317,00
919,61	2320,00
920,04	2309,00
920,47	2326,00
920,91	2312,00
921,34	2319,00
921,77	2321,00
922,20	2302,00
922,64	2317,00
923,07	2324,00
923,50	2328,00
923,93	2303,00
924,37	2317,00
924,80	2316,00
925,23	2320,00
925,66	2341,00
926,09	2303,00
926,53	2316,00
926,96	2300,00
927,39	2331,00
927,82	2311,00
928,25	2318,00
928,69	2314,00
929,12	2317,00
929,55	2315,00
929,98	2336,00
930,41	2304,00
930,84	2321,00
931,28	2300,00
931,71	2328,00
932,14	2328,00
932,57	2339,00
933,00	2317,00
933,43	2319,00
933,86	2319,00
934,30	2322,00
934,73	2325,00
935,16	2307,00
935,59	2318,00
936,02	2304,00
936,45	2330,00
936,88	2308,00
937,31	2330,00
937,75	2322,00
938,18	2311,00
938,61	2316,00
939,04	2309,00
939,47	2320,00
939,90	2324,00
940,33	2330,00
940,76	2309,00
941,19	2329,00
941,62	2302,00
942,05	2318,00
942,48	2322,00
942,91	2304,00
943,35	2311,00
943,78	2323,00
944,21	2312,00
944,64	2335,00
945,07	2319,00
945,50	2320,00
945,93	2322,00
946,36	2329,00
946,79	2313,00
947,22	2316,00
947,65	2320,00
948,08	2312,00
948,51	2296,00
948,94	2323,00
949,37	2346,00
949,80	2330,00
950,23	2328,00
950,66	2316,00
951,09	2324,00
951,52	2303,00
951,95	2326,00
952,38	2318,00
952,81	2329,00
953,24	2300,00
953,67	2306,00
954,10	2310,00
954,53	2322,00
954,96	2317,00
955,39	2326,00
955,82	2310,00
956,25	2304,00
956,68	2348,00
957,11	2304,00
957,53	2326,00
957,96	2313,00
958,39	2316,00
958,82	2306,00
959,25	2310,00
959,68	2304,00
960,11	2314,00
960,54	2322,00
960,97	2314,00
961,40	2329,00
961,83	2308,00
962,26	2312,00
962,68	2320,00
963,11	2321,00
963,54	2321,00
963,97	2319,00
964,40	2313,00
964,83	2318,00
965,26	2317,00
965,69	2320,00
966,11	2313,00
966,54	2314,00
966,97	2301,00
967,40	2313,00
967,83	2353,00
968,26	2322,00
968,69	2326,00
969,11	2319,00
969,54	2305,00
969,97	2319,00
970,40	2326,00
970,83	2315,00
971,26	2327,00
971,68	2308,00
972,11	2317,00
972,54	2319,00
972,97	2316,00
973,40	2315,00
973,82	2319,00
974,25	2313,00
974,68	2311,00
975,11	2309,00
975,54	2320,00
975,96	2317,00
976,39	2306,00
976,82	2322,00
977,25	2323,00
977,67	2320,00
978,10	2317,00
978,53	2302,00
978,96	2337,00
979,38	2316,00
979,81	2302,00
980,24	2326,00
980,67	2324,00
981,09	2311,00
981,52	2312,00
981,95	2313,00
982,38	2315,00
982,80	2311,00
983,23	2331,00
983,66	2317,00
984,08	2303,00
984,51	2304,00
984,94	2323,00
985,37	2318,00
985,79	2312,00
986,22	2308,00
986,65	2318,00
987,07	2309,00
987,50	2310,00
987,93	2316,00
988,35	2328,00
988,78	2310,00
989,21	2314,00
989,63	2328,00
990,06	2315,00
990,49	2316,00
990,91	2327,00
991,34	2304,00
991,77	2312,00
992,19	2324,00
992,62	2326,00
993,05	2307,00
993,47	2318,00
993,90	2310,00
994,32	2315,00
994,75	2314,00
995,18	2307,00
995,60	2314,00
996,03	2316,00
996,45	2332,00
996,88	2302,00
997,31	2312,00
997,73	2309,00
998,16	2312,00
998,58	2323,00
999,01	2312,00
999,44	2324,00
999,86	2328,00
1000,29	2314,00
1000,71	2306,00
1001,14	2312,00
1001,56	2316,00
1001,99	2321,00
1002,41	2312,00
1002,84	2317,00
1003,27	2303,00
1003,69	2326,00
1004,12	2312,00
1004,54	2318,00
1004,97	2325,00
1005,39	2301,00
1005,82	2328,00
1006,24	2323,00
1006,67	2316,00
1007,09	2308,00
1007,52	2323,00
1007,94	2325,00
1008,37	2344,00
1008,79	2318,00
1009,22	2317,00
1009,64	2328,00
1010,07	2321,00
1010,49	2328,00
1010,92	2318,00
1011,34	2329,00
1011,77	2312,00
1012,19	2322,00
1012,62	2321,00
1013,04	2312,00
1013,46	2334,00
1013,89	2308,00
1014,31	2320,00
1014,74	2313,00
1015,16	2310,00
1015,59	2320,00
1016,01	2313,00
1016,44	2325,00
1016,86	2446,00
1017,28	2311,00
1017,71	2303,00
1018,13	2328,00
1018,56	2332,00
1018,98	2318,00
1019,40	2314,00
1019,83	2324,00
1020,25	2330,00
1020,68	2308,00
1021,10	2324,00
1021,52	2315,00
1021,95	2337,00
1022,37	2327,00
1022,79	2334,00
1023,22	2334,00
1023,64	2327,00
1024,07	2321,00
1024,49	2338,00
1024,91	2318,00
1025,34	2315,00
1025,76	2343,00
1026,18	2322,00
1026,61	2312,00
1027,03	2317,00
1027,45	2325,00
1027,88	2306,00
1028,30	2326,00
1028,72	2319,00
1029,15	2307,00
1029,57	2325,00
1029,99	2330,00
1030,41	2311,00
1030,84	2321,00
1031,26	2310,00
1031,68	2312,00
1032,11	2331,00
1032,53	2315,00
1032,95	2311,00
1033,37	2309,00
1033,80	2316,00
1034,22	2313,00
1034,64	2342,00
1035,06	2322,00
1035,49	2330,00
1035,91	2317,00
1036,33	2310,00
1036,75	2331,00
1037,18	2329,00
1037,60	2320,00
1038,02	2330,00
1038,44	2341,00
1038,87	2314,00
1039,29	2323,00
1039,71	2334,00
1040,13	2315,00
1040,55	2314,00
1040,98	2320,00
1041,40	2324,00
1041,82	2327,00
1042,24	2319,00
1042,66	2321,00
1043,09	2320,00
1043,51	2315,00
1043,93	2334,00
1044,35	2316,00
1044,77	2326,00
1045,20	2319,00
1045,62	2312,00
1046,04	2326,00
1046,46	2315,00
1046,88	2312,00
1047,30	2325,00
1047,72	2326,00
1048,15	2325,00
1048,57	2315,00
1048,99	2311,00
1049,41	2327,00
1049,83	2320,00
1050,25	2319,00
1050,67	2330,00
1051,09	2306,00
1051,52	2329,00
1051,94	2302,00
1052,36	2325,00
1052,78	2310,00
1053,20	2324,00
1053,62	2308,00
1054,04	2322,00
1054,46	2314,00
1054,88	2327,00
1055,30	2329,00
1055,72	2320,00
1056,14	2319,00
1056,57	2347,00
1056,99	2316,00
1057,41	2325,00
1057,83	2318,00
1058,25	2312,00
1058,67	2303,00
1059,09	2307,00
1059,51	2310,00
1059,93	2321,00
1060,35	2323,00
1060,77	2325,00
1061,19	2321,00
1061,61	2340,00
1062,03	2333,00
1062,45	2320,00
1062,87	2329,00
1063,29	2320,00
1063,71	2318,00
1064,13	2317,00
1064,55	2318,00
1064,97	2326,00
1065,39	2322,00
1065,81	2322,00
1066,23	2322,00
1066,65	2318,00
1067,07	2332,00
1067,49	2314,00
1067,91	2319,00
1068,33	2314,00
1068,75	2331,00
1069,17	2330,00
1069,59	2326,00
1070,00	2317,00
1070,42	2326,00
1070,84	2322,00
1071,26	2304,00
1071,68	2310,00
1072,10	2332,00
1072,52	2325,00
1072,94	2318,00
1073,36	2316,00
1073,78	2315,00
1074,20	2328,00
1074,62	2316,00
1075,03	2310,00
1075,45	2329,00
1075,87	2313,00
1076,29	2319,00
1076,71	2318,00
1077,13	2328,00
1077,55	2313,00
1077,97	2325,00
1078,38	2326,00
1078,80	2316,00
1079,22	2342,00
1079,64	2321,00
1080,06	2305,00
1080,48	2331,00
1080,89	2317,00
1081,31	2325,00
1081,73	2320,00
1082,15	2322,00
1082,57	2318,00
1082,99	2321,00
1083,40	2320,00
1083,82	2334,00
1084,24	2309,00
1084,66	2320,00
1085,08	2325,00
1085,49	2313,00
1085,91	2322,00
1086,33	2551,00
1086,75	2322,00
1087,17	2320,00
1087,58	2319,00
1088,00	2322,00
1088,42	2327,00
1088,84	2327,00
1089,25	2301,00
1089,67	2319,00
1090,09	2328,00
1090,51	2315,00
1090,92	2331,00
1091,34	2329,00
1091,76	2312,00
1092,18	2327,00
1092,59	2310,00
1093,01	2326,00
1093,43	2314,00
1093,84	2320,00
1094,26	2303,00
1094,68	2331,00
1095,10	2305,00
1095,51	2314,00
1095,93	2321,00
1096,35	2329,00
1096,76	2310,00
1097,18	2322,00
1097,60	2303,00
1098,01	2338,00
1098,43	2302,00
1098,85	2318,00
1099,26	2314,00
1099,68	2308,00
1100,10	2319,00
1100,51	2312,00
1100,93	2307,00
1101,35	2314,00
1101,76	2316,00
1102,18	2361,00
1102,60	2318,00
1103,01	2317,00
1103,43	2310,00
1103,84	2314,00
1104,26	2306,00
1104,68	2318,00
1105,09	2303,00
1105,51	2310,00
1105,92	2303,00
1106,34	2307,00
1106,76	2324,00
1107,17	2317,00
1107,59	2325,00
1108,00	2298,00
1108,42	2315,00
1108,83	2308,00
1109,25	2317,00
1109,67	2301,00
1110,08	2303,00
1110,50	2298,00
1110,91	2322,00
1111,33	2320,00
1111,74	2313,00
1112,16	2320,00
1112,57	2314,00
1112,99	2323,00
1113,41	2330,00
1113,82	2322,00
1114,24	2315,00
1114,65	2303,00
1115,07	2319,00
1115,48	2306,00
1115,90	2188,00
1116,31	2199,00
1116,73	2198,00
1117,14	2192,00
>>>>>End Processed Spectral Data<<<<<
