SpectraSuite Data File
++++++++++++++++++++++++++++++++++++
Date: Thu Nov 17 10:18:47 EET 2016
User: OO Maya
Dark Spectrum Present: No
Reference Spectrum Present: No
Number of Sampled Component Spectra: 1
Spectrometers: MAYP11278
Integration Time (usec): 60000 (MAYP11278)
Spectra Averaged: 1 (MAYP11278)
Boxcar Smoothing: 0 (MAYP11278)
Correct for Electrical Dark: No (MAYP11278)
Strobe/Lamp Enabled: No (MAYP11278)
Correct for Detector Non-linearity: No (MAYP11278)
Correct for Stray Light: No (MAYP11278)
Number of Pixels in Processed Spectrum: 2068
>>>>>Begin Processed Spectral Data<<<<<
187,82	2312,00
188,30	2218,00
188,78	2195,00
189,26	2201,00
189,73	2312,00
190,21	2320,00
190,69	2319,00
191,17	2321,00
191,64	2330,00
192,12	2335,00
192,60	2326,00
193,07	2324,00
193,55	2319,00
194,03	2333,00
194,51	2325,00
194,98	2337,00
195,46	2333,00
195,94	2319,00
196,42	2313,00
196,89	2335,00
197,37	2326,00
197,85	2313,00
198,32	2313,00
198,80	2317,00
199,28	2318,00
199,76	2328,00
200,23	2320,00
200,71	2310,00
201,19	2332,00
201,66	2334,00
202,14	2325,00
202,62	2313,00
203,09	2329,00
203,57	2308,00
204,05	2327,00
204,53	2322,00
205,00	2317,00
205,48	2330,00
205,96	2329,00
206,43	2319,00
206,91	2330,00
207,39	2334,00
207,86	2322,00
208,34	2320,00
208,82	2337,00
209,29	2335,00
209,77	2320,00
210,25	2330,00
210,72	2327,00
211,20	2331,00
211,68	2329,00
212,15	2322,00
212,63	2338,00
213,11	2315,00
213,58	2318,00
214,06	2343,00
214,53	2331,00
215,01	2338,00
215,49	2322,00
215,96	2334,00
216,44	2326,00
216,92	2339,00
217,39	2322,00
217,87	2326,00
218,35	2345,00
218,82	2320,00
219,30	2322,00
219,77	2342,00
220,25	2330,00
220,73	2349,00
221,20	2332,00
221,68	2341,00
222,15	2326,00
222,63	2337,00
223,11	2342,00
223,58	2328,00
224,06	2350,00
224,53	2332,00
225,01	2338,00
225,49	2365,00
225,96	2364,00
226,44	2358,00
226,91	2388,00
227,39	2397,00
227,87	2426,00
228,34	2449,00
228,82	2428,00
229,29	2422,00
229,77	2414,00
230,24	2410,00
230,72	2401,00
231,20	2385,00
231,67	2367,00
232,15	2363,00
232,62	2345,00
233,10	2347,00
233,57	2347,00
234,05	2370,00
234,53	2332,00
235,00	2335,00
235,48	2324,00
235,95	2327,00
236,43	2337,00
236,90	2334,00
237,38	2330,00
237,85	2343,00
238,33	2327,00
238,80	2339,00
239,28	2324,00
239,75	2315,00
240,23	2329,00
240,71	2328,00
241,18	2325,00
241,66	2332,00
242,13	2334,00
242,61	2341,00
243,08	2316,00
243,56	2322,00
244,03	2339,00
244,51	2346,00
244,98	2321,00
245,46	2330,00
245,93	2666,00
246,41	2304,00
246,88	2324,00
247,36	2324,00
247,83	2328,00
248,31	2329,00
248,78	2321,00
249,26	2343,00
249,73	2328,00
250,21	2338,00
250,68	2347,00
251,16	2331,00
251,63	2338,00
252,10	2330,00
252,58	2325,00
253,05	2343,00
253,53	2335,00
254,00	2329,00
254,48	2337,00
254,95	2320,00
255,43	2332,00
255,90	2327,00
256,38	2326,00
256,85	2335,00
257,33	2327,00
257,80	2354,00
258,27	2328,00
258,75	2334,00
259,22	2334,00
259,70	2342,00
260,17	2343,00
260,65	2315,00
261,12	2328,00
261,59	2346,00
262,07	2323,00
262,54	2332,00
263,02	2324,00
263,49	2320,00
263,97	2333,00
264,44	2328,00
264,91	2336,00
265,39	2328,00
265,86	2346,00
266,34	2325,00
266,81	2338,00
267,28	2317,00
267,76	2341,00
268,23	2330,00
268,71	2318,00
269,18	2322,00
269,65	2305,00
270,13	2352,00
270,60	2349,00
271,08	2342,00
271,55	2333,00
272,02	2319,00
272,50	2312,00
272,97	2317,00
273,44	2332,00
273,92	2353,00
274,39	2336,00
274,87	2340,00
275,34	2331,00
275,81	2329,00
276,29	2314,00
276,76	2333,00
277,23	2305,00
277,71	2328,00
278,18	2338,00
278,65	2352,00
279,13	2331,00
279,60	2328,00
280,07	2362,00
280,55	2343,00
281,02	2344,00
281,50	2325,00
281,97	2345,00
282,44	2337,00
282,91	2331,00
283,39	2326,00
283,86	2327,00
284,33	2319,00
284,81	2332,00
285,28	2332,00
285,75	2345,00
286,23	2328,00
286,70	2334,00
287,17	2334,00
287,65	2344,00
288,12	2332,00
288,59	2325,00
289,07	2319,00
289,54	2335,00
290,01	2326,00
290,48	2329,00
290,96	2328,00
291,43	2335,00
291,90	2354,00
292,38	2332,00
292,85	2332,00
293,32	2335,00
293,79	2331,00
294,27	2352,00
294,74	2316,00
295,21	2349,00
295,69	2350,00
296,16	2344,00
296,63	2335,00
297,10	2328,00
297,58	2334,00
298,05	2332,00
298,52	2327,00
298,99	2349,00
299,47	2314,00
299,94	2339,00
300,41	2319,00
300,88	2340,00
301,36	2324,00
301,83	2333,00
302,30	2319,00
302,77	2336,00
303,25	2335,00
303,72	2327,00
304,19	2324,00
304,66	2318,00
305,13	2326,00
305,61	2338,00
306,08	2327,00
306,55	2345,00
307,02	2319,00
307,49	2324,00
307,97	2339,00
308,44	2327,00
308,91	2334,00
309,38	2346,00
309,86	2324,00
310,33	2324,00
310,80	2329,00
311,27	2325,00
311,74	2327,00
312,21	2312,00
312,69	2352,00
313,16	2325,00
313,63	2340,00
314,10	2339,00
314,57	2328,00
315,05	2324,00
315,52	2334,00
315,99	2330,00
316,46	2333,00
316,93	2327,00
317,40	2326,00
317,88	2346,00
318,35	2327,00
318,82	2317,00
319,29	2314,00
319,76	2327,00
320,23	2334,00
320,70	2327,00
321,18	2334,00
321,65	2327,00
322,12	2322,00
322,59	2335,00
323,06	2343,00
323,53	2355,00
324,00	2326,00
324,48	2334,00
324,95	2331,00
325,42	2315,00
325,89	2329,00
326,36	2338,00
326,83	2332,00
327,30	2340,00
327,77	2348,00
328,24	2336,00
328,72	2319,00
329,19	2332,00
329,66	2315,00
330,13	2330,00
330,60	2342,00
331,07	2331,00
331,54	2338,00
332,01	2328,00
332,48	2342,00
332,95	2328,00
333,43	2339,00
333,90	2342,00
334,37	2342,00
334,84	2329,00
335,31	2363,00
335,78	2335,00
336,25	2330,00
336,72	2330,00
337,19	2332,00
337,66	2318,00
338,13	2325,00
338,60	2348,00
339,07	2332,00
339,54	2320,00
340,01	2320,00
340,49	2314,00
340,96	2334,00
341,43	2331,00
341,90	2318,00
342,37	2336,00
342,84	2329,00
343,31	2331,00
343,78	2321,00
344,25	2334,00
344,72	2342,00
345,19	2328,00
345,66	2340,00
346,13	2312,00
346,60	2326,00
347,07	2349,00
347,54	2316,00
348,01	2333,00
348,48	2327,00
348,95	2317,00
349,42	2326,00
349,89	2331,00
350,36	2332,00
350,83	2341,00
351,30	2336,00
351,77	2334,00
352,24	2334,00
352,71	2328,00
353,18	2331,00
353,65	2328,00
354,12	2343,00
354,59	2333,00
355,06	2325,00
355,53	2329,00
356,00	2346,00
356,47	2334,00
356,94	2329,00
357,41	2340,00
357,88	2329,00
358,35	2318,00
358,82	2330,00
359,28	2329,00
359,75	2320,00
360,22	2329,00
360,69	2349,00
361,16	2329,00
361,63	2336,00
362,10	2342,00
362,57	2316,00
363,04	2317,00
363,51	2342,00
363,98	2339,00
364,45	2336,00
364,92	2329,00
365,39	2334,00
365,86	2317,00
366,32	2323,00
366,79	2323,00
367,26	2459,00
367,73	2331,00
368,20	2316,00
368,67	2344,00
369,14	2312,00
369,61	2336,00
370,08	2327,00
370,55	2330,00
371,02	2431,00
371,48	2342,00
371,95	2316,00
372,42	2319,00
372,89	2321,00
373,36	2337,00
373,83	2332,00
374,30	2327,00
374,77	2331,00
375,23	2316,00
375,70	2326,00
376,17	2318,00
376,64	2335,00
377,11	2310,00
377,58	2321,00
378,05	2326,00
378,51	2334,00
378,98	2330,00
379,45	2313,00
379,92	2335,00
380,39	2356,00
380,86	2333,00
381,33	2326,00
381,79	2348,00
382,26	2328,00
382,73	2313,00
383,20	2344,00
383,67	2333,00
384,14	2332,00
384,60	2361,00
385,07	2318,00
385,54	2331,00
386,01	2320,00
386,48	2345,00
386,94	2331,00
387,41	2334,00
387,88	2344,00
388,35	2320,00
388,82	2338,00
389,28	2322,00
389,75	2342,00
390,22	2341,00
390,69	2337,00
391,16	2329,00
391,62	2328,00
392,09	2342,00
392,56	2335,00
393,03	2330,00
393,50	2341,00
393,96	2351,00
394,43	2343,00
394,90	2353,00
395,37	2360,00
395,83	2386,00
396,30	2350,00
396,77	2371,00
397,24	2379,00
397,70	2381,00
398,17	2392,00
398,64	2428,00
399,11	2414,00
399,57	2450,00
400,04	2460,00
400,51	2458,00
400,98	2484,00
401,44	2521,00
401,91	2525,00
402,38	2520,00
402,84	2552,00
403,31	2603,00
403,78	2600,00
404,25	2647,00
404,71	2626,00
405,18	2637,00
405,65	2612,00
406,12	2621,00
406,58	2623,00
407,05	2683,00
407,52	2688,00
407,98	2710,00
408,45	2727,00
408,92	2725,00
409,38	2747,00
409,85	2754,00
410,32	2762,00
410,78	2774,00
411,25	2816,00
411,72	2832,00
412,18	2864,00
412,65	2845,00
413,12	2865,00
413,59	2858,00
414,05	2892,00
414,52	2938,00
414,98	2895,00
415,45	2944,00
415,92	2951,00
416,38	2915,00
416,85	2953,00
417,32	2939,00
417,78	2943,00
418,25	2957,00
418,72	2968,00
419,18	2995,00
419,65	2988,00
420,12	3028,00
420,58	3024,00
421,05	3055,00
421,51	3046,00
421,98	3018,00
422,45	3009,00
422,91	2995,00
423,38	3053,00
423,85	3055,00
424,31	3049,00
424,78	3098,00
425,24	3064,00
425,71	3095,00
426,18	3066,00
426,64	3094,00
427,11	3095,00
427,57	3127,00
428,04	3089,00
428,51	3056,00
428,97	3045,00
429,44	3039,00
429,90	3022,00
430,37	3047,00
430,83	3076,00
431,30	3177,00
431,77	3196,00
432,23	3204,00
432,70	3188,00
433,16	3190,00
433,63	3214,00
434,09	3174,00
434,56	3303,00
435,03	3387,00
435,49	3511,00
435,96	3471,00
436,42	3329,00
436,89	3373,00
437,35	3325,00
437,82	3301,00
438,28	3356,00
438,75	3402,00
439,21	3452,00
439,68	3427,00
440,14	3416,00
440,61	3379,00
441,07	3386,00
441,54	3325,00
442,00	3384,00
442,47	3366,00
442,94	3293,00
443,40	3303,00
443,87	3301,00
444,33	3312,00
444,80	3353,00
445,26	3352,00
445,73	3401,00
446,19	3471,00
446,65	3512,00
447,12	3575,00
447,58	3597,00
448,05	3711,00
448,51	3847,00
448,98	3903,00
449,44	4042,00
449,91	4089,00
450,37	3982,00
450,84	3879,00
451,30	3819,00
451,77	3678,00
452,23	3682,00
452,70	3611,00
453,16	3637,00
453,62	3658,00
454,09	3695,00
454,55	3707,00
455,02	3557,00
455,48	3484,00
455,95	3482,00
456,41	3491,00
456,88	3431,00
457,34	3438,00
457,80	3399,00
458,27	3384,00
458,73	3436,00
459,20	3391,00
459,66	3415,00
460,13	3446,00
460,59	3451,00
461,05	3551,00
461,52	3583,00
461,98	3642,00
462,45	3710,00
462,91	3737,00
463,37	3803,00
463,84	3814,00
464,30	3940,00
464,76	4107,00
465,23	4528,00
465,69	5041,00
466,16	5418,00
466,62	5710,00
467,08	5610,00
467,55	5173,00
468,01	4794,00
468,48	4407,00
468,94	4201,00
469,40	4069,00
469,87	3946,00
470,33	3916,00
470,79	3813,00
471,26	3750,00
471,72	3726,00
472,18	3690,00
472,65	3592,00
473,11	3584,00
473,57	3607,00
474,04	3745,00
474,50	3977,00
474,96	4067,00
475,43	3902,00
475,89	3581,00
476,35	3388,00
476,82	3362,00
477,28	3305,00
477,74	3348,00
478,21	3327,00
478,67	3295,00
479,13	3338,00
479,59	3334,00
480,06	3290,00
480,52	3348,00
480,98	3325,00
481,45	3321,00
481,91	3329,00
482,37	3334,00
482,84	3334,00
483,30	3302,00
483,76	3301,00
484,22	3341,00
484,69	3307,00
485,15	3254,00
485,61	3189,00
486,07	3217,00
486,54	3278,00
487,00	3336,00
487,46	3287,00
487,92	3338,00
488,39	3373,00
488,85	3380,00
489,31	3470,00
489,77	3538,00
490,24	3556,00
490,70	3602,00
491,16	3586,00
491,62	3573,00
492,09	3542,00
492,55	3556,00
493,01	3566,00
493,47	3628,00
493,94	3687,00
494,40	3861,00
494,86	3935,00
495,32	4249,00
495,78	4831,00
496,25	5614,00
496,71	7149,00
497,17	9388,00
497,63	11890,00
498,09	12538,00
498,56	10975,00
499,02	8564,00
499,48	6705,00
499,94	5584,00
500,40	4832,00
500,87	4345,00
501,33	4082,00
501,79	3873,00
502,25	3767,00
502,71	3729,00
503,17	3601,00
503,64	3553,00
504,10	3523,00
504,56	3486,00
505,02	3514,00
505,48	3489,00
505,94	3429,00
506,40	3478,00
506,87	3418,00
507,33	3400,00
507,79	3396,00
508,25	3449,00
508,71	3443,00
509,17	3419,00
509,63	3448,00
510,10	3435,00
510,56	3449,00
511,02	3438,00
511,48	3508,00
511,94	3446,00
512,40	3453,00
512,86	3449,00
513,32	3543,00
513,78	3749,00
514,25	4622,00
514,71	6199,00
515,17	6440,00
515,63	5285,00
516,09	4098,00
516,55	3589,00
517,01	3521,00
517,47	3450,00
517,93	3441,00
518,39	3438,00
518,85	3435,00
519,32	3439,00
519,78	3449,00
520,24	3424,00
520,70	3402,00
521,16	3450,00
521,62	3414,00
522,08	3406,00
522,54	3392,00
523,00	3460,00
523,46	3453,00
523,92	3442,00
524,38	3500,00
524,84	3421,00
525,30	3435,00
525,76	3465,00
526,22	3374,00
526,68	3343,00
527,14	3421,00
527,60	3430,00
528,06	3486,00
528,52	3471,00
528,98	3460,00
529,44	3522,00
529,90	3477,00
530,36	3492,00
530,82	3501,00
531,28	3500,00
531,74	3441,00
532,20	3468,00
532,66	3458,00
533,12	3460,00
533,58	3448,00
534,04	3450,00
534,50	3500,00
534,96	3526,00
535,42	3513,00
535,88	3559,00
536,34	3461,00
536,80	3497,00
537,26	3518,00
537,72	3511,00
538,18	3534,00
538,64	3537,00
539,10	3508,00
539,56	3563,00
540,02	3507,00
540,48	3520,00
540,94	3516,00
541,40	3558,00
541,86	3605,00
542,32	3565,00
542,78	3597,00
543,24	3654,00
543,69	3622,00
544,15	3690,00
544,61	3687,00
545,07	3902,00
545,53	4330,00
545,99	4530,00
546,45	4124,00
546,91	3990,00
547,37	3965,00
547,83	4050,00
548,29	4196,00
548,74	4353,00
549,20	4504,00
549,66	4725,00
550,12	4880,00
550,58	4934,00
551,04	5079,00
551,50	5199,00
551,96	5304,00
552,42	5393,00
552,87	5504,00
553,33	5499,00
553,79	5534,00
554,25	5582,00
554,71	5862,00
555,17	5946,00
555,63	6167,00
556,08	6522,00
556,54	6919,00
557,00	7279,00
557,46	7673,00
557,92	8058,00
558,38	8421,00
558,83	8779,00
559,29	9110,00
559,75	9286,00
560,21	9474,00
560,67	9696,00
561,13	9550,00
561,58	9526,00
562,04	9510,00
562,50	9690,00
562,96	9645,00
563,42	9780,00
563,87	10017,00
564,33	10138,00
564,79	10449,00
565,25	11073,00
565,71	12133,00
566,16	13975,00
566,62	16400,00
567,08	19049,00
567,54	23908,00
568,00	33598,00
568,45	41505,00
568,91	40508,00
569,37	31381,00
569,83	22723,00
570,28	17743,00
570,74	15267,00
571,20	13790,00
571,66	12875,00
572,11	12305,00
572,57	12095,00
573,03	11896,00
573,49	11927,00
573,94	11986,00
574,40	12234,00
574,86	12432,00
575,32	12484,00
575,77	12842,00
576,23	13170,00
576,69	13531,00
577,15	13949,00
577,60	14367,00
578,06	14667,00
578,52	15124,00
578,97	15707,00
579,43	16315,00
579,89	16944,00
580,34	17559,00
580,80	18277,00
581,26	19101,00
581,72	19692,00
582,17	20658,00
582,63	21505,00
583,09	22230,00
583,54	23070,00
584,00	23694,00
584,46	24075,00
584,91	24264,00
585,37	23725,00
585,83	22225,00
586,28	19856,00
586,74	15849,00
587,20	11411,00
587,65	7741,00
588,11	5644,00
588,57	4649,00
589,02	4263,00
589,48	4188,00
589,94	4406,00
590,39	4739,00
590,85	5533,00
591,30	7108,00
591,76	10035,00
592,22	13286,00
592,67	16587,00
593,13	19380,00
593,59	21453,00
594,04	22944,00
594,50	24073,00
594,95	24686,00
595,41	25244,00
595,87	25092,00
596,32	25195,00
596,78	24993,00
597,23	24874,00
597,69	24586,00
598,15	24179,00
598,60	23904,00
599,06	23547,00
599,51	23304,00
599,97	22830,00
600,43	22207,00
600,88	21813,00
601,34	21520,00
601,79	20947,00
602,25	20747,00
602,70	20262,00
603,16	19680,00
603,61	19291,00
604,07	18926,00
604,53	18714,00
604,98	18277,00
605,44	17805,00
605,89	17451,00
606,35	17120,00
606,80	16860,00
607,26	16482,00
607,71	16197,00
608,17	15865,00
608,62	15659,00
609,08	15362,00
609,53	15156,00
609,99	14807,00
610,44	14628,00
610,90	14415,00
611,35	14102,00
611,81	14028,00
612,26	13781,00
612,72	13651,00
613,17	13539,00
613,63	13349,00
614,08	13589,00
614,54	14213,00
614,99	17740,00
615,45	22199,00
615,90	24916,00
616,36	20468,00
616,81	15576,00
617,27	13604,00
617,72	12562,00
618,18	12090,00
618,63	11639,00
619,09	11549,00
619,54	11332,00
619,99	11278,00
620,45	10985,00
620,90	10933,00
621,36	10739,00
621,81	10775,00
622,27	10674,00
622,72	10476,00
623,18	10278,00
623,63	10311,00
624,08	10135,00
624,54	10045,00
624,99	9992,00
625,45	9817,00
625,90	9722,00
626,35	9772,00
626,81	9648,00
627,26	9465,00
627,72	9317,00
628,17	9406,00
628,62	9331,00
629,08	9299,00
629,53	9211,00
629,99	9124,00
630,44	9049,00
630,89	9027,00
631,35	8872,00
631,80	8840,00
632,26	8822,00
632,71	8844,00
633,16	8701,00
633,62	8644,00
634,07	8596,00
634,52	8563,00
634,98	8424,00
635,43	8427,00
635,88	8389,00
636,34	8298,00
636,79	8286,00
637,24	8239,00
637,70	8172,00
638,15	8154,00
638,60	8116,00
639,06	8102,00
639,51	8092,00
639,96	7989,00
640,42	8002,00
640,87	7923,00
641,32	7915,00
641,78	7776,00
642,23	7866,00
642,68	7776,00
643,14	7772,00
643,59	7777,00
644,04	7654,00
644,49	7632,00
644,95	7580,00
645,40	7494,00
645,85	7574,00
646,31	7593,00
646,76	7532,00
647,21	7534,00
647,66	7518,00
648,12	7479,00
648,57	7338,00
649,02	7244,00
649,47	7191,00
649,93	7169,00
650,38	7202,00
650,83	7088,00
651,28	7048,00
651,74	7088,00
652,19	7088,00
652,64	7040,00
653,09	7101,00
653,55	7152,00
654,00	7082,00
654,45	7090,00
654,90	7149,00
655,35	7063,00
655,81	6995,00
656,26	6972,00
656,71	7078,00
657,16	7078,00
657,62	7040,00
658,07	7016,00
658,52	7013,00
658,97	6950,00
659,42	6913,00
659,88	6875,00
660,33	6817,00
660,78	6715,00
661,23	6765,00
661,68	6722,00
662,13	6668,00
662,59	6587,00
663,04	6539,00
663,49	6558,00
663,94	6584,00
664,39	6663,00
664,84	6636,00
665,30	6696,00
665,75	6673,00
666,20	6700,00
666,65	6714,00
667,10	6760,00
667,55	6742,00
668,00	6798,00
668,46	6872,00
668,91	6850,00
669,36	6872,00
669,81	6850,00
670,26	6799,00
670,71	6972,00
671,16	6932,00
671,61	6866,00
672,06	6857,00
672,52	6815,00
672,97	6787,00
673,42	6735,00
673,87	6696,00
674,32	6647,00
674,77	6666,00
675,22	6486,00
675,67	6503,00
676,12	6496,00
676,57	6301,00
677,02	6324,00
677,47	6243,00
677,93	6179,00
678,38	6104,00
678,83	6044,00
679,28	5984,00
679,73	5907,00
680,18	5795,00
680,63	5821,00
681,08	5668,00
681,53	5652,00
681,98	5567,00
682,43	5535,00
682,88	5466,00
683,33	5396,00
683,78	5396,00
684,23	5275,00
684,68	5272,00
685,13	5205,00
685,58	5157,00
686,03	5064,00
686,48	4854,00
686,93	4722,00
687,38	4665,00
687,83	4717,00
688,28	4769,00
688,73	4737,00
689,18	4630,00
689,63	4686,00
690,08	4661,00
690,53	4687,00
690,98	4727,00
691,43	4728,00
691,88	4702,00
692,33	4742,00
692,78	4691,00
693,23	4686,00
693,68	4678,00
694,13	4679,00
694,58	4710,00
695,03	4693,00
695,48	4664,00
695,93	4658,00
696,38	4736,00
696,83	4689,00
697,28	4721,00
697,72	4673,00
698,17	4647,00
698,62	4666,00
699,07	4621,00
699,52	4603,00
699,97	4626,00
700,42	4603,00
700,87	4580,00
701,32	4608,00
701,77	4528,00
702,22	4532,00
702,67	4548,00
703,11	4560,00
703,56	4573,00
704,01	4600,00
704,46	4561,00
704,91	4566,00
705,36	4596,00
705,81	4522,00
706,26	4504,00
706,70	4523,00
707,15	4552,00
707,60	4485,00
708,05	4550,00
708,50	4464,00
708,95	4525,00
709,40	4488,00
709,84	4507,00
710,29	4485,00
710,74	4482,00
711,19	4461,00
711,64	4459,00
712,09	4435,00
712,53	4479,00
712,98	4448,00
713,43	4464,00
713,88	4432,00
714,33	4406,00
714,78	4378,00
715,22	4386,00
715,67	4352,00
716,12	4335,00
716,57	4275,00
717,02	4231,00
717,46	4152,00
717,91	4150,00
718,36	4157,00
718,81	4114,00
719,26	4080,00
719,70	4090,00
720,15	4099,00
720,60	4085,00
721,05	4225,00
721,49	4207,00
721,94	4252,00
722,39	4238,00
722,84	4233,00
723,28	4123,00
723,73	4114,00
724,18	4083,00
724,63	4159,00
725,07	4078,00
725,52	4093,00
725,97	4110,00
726,42	4104,00
726,86	4142,00
727,31	4041,00
727,76	4117,00
728,21	4096,00
728,65	4087,00
729,10	4116,00
729,55	4108,00
729,99	4117,00
730,44	4064,00
730,89	4122,00
731,33	4096,00
731,78	4171,00
732,23	4179,00
732,68	4156,00
733,12	4174,00
733,57	4212,00
734,02	4213,00
734,46	4237,00
734,91	4197,00
735,36	4195,00
735,80	4227,00
736,25	4250,00
736,70	4204,00
737,14	4294,00
737,59	4235,00
738,04	4219,00
738,48	4215,00
738,93	4261,00
739,37	4261,00
739,82	4237,00
740,27	4302,00
740,71	4289,00
741,16	4217,00
741,61	4224,00
742,05	4224,00
742,50	4208,00
742,94	4215,00
743,39	4193,00
743,84	4193,00
744,28	4219,00
744,73	4240,00
745,18	4210,00
745,62	4241,00
746,07	4232,00
746,51	4223,00
746,96	4180,00
747,40	4167,00
747,85	4166,00
748,30	4170,00
748,74	4177,00
749,19	4209,00
749,63	4244,00
750,08	4194,00
750,52	4285,00
750,97	4325,00
751,42	4335,00
751,86	4278,00
752,31	4295,00
752,75	4259,00
753,20	4218,00
753,64	4191,00
754,09	4156,00
754,53	4172,00
754,98	4147,00
755,42	4161,00
755,87	4102,00
756,31	4098,00
756,76	4089,00
757,20	4105,00
757,65	4064,00
758,09	3980,00
758,54	3983,00
758,98	3818,00
759,43	3591,00
759,87	3432,00
760,32	3334,00
760,76	3331,00
761,21	3402,00
761,65	3441,00
762,10	3435,00
762,54	3366,00
762,99	3385,00
763,43	3420,00
763,88	3438,00
764,32	3505,00
764,77	3653,00
765,21	4136,00
765,66	5354,00
766,10	6774,00
766,54	7122,00
766,99	6400,00
767,43	4829,00
767,88	4414,00
768,32	4359,00
768,77	4729,00
769,21	6052,00
769,66	6435,00
770,10	6752,00
770,54	5483,00
770,99	4509,00
771,43	4234,00
771,88	4088,00
772,32	4067,00
772,76	4075,00
773,21	3979,00
773,65	3970,00
774,10	3956,00
774,54	3944,00
774,98	3971,00
775,43	3951,00
775,87	3977,00
776,31	3968,00
776,76	3945,00
777,20	3934,00
777,65	3955,00
778,09	3954,00
778,53	3978,00
778,98	3964,00
779,42	3957,00
779,86	3975,00
780,31	4027,00
780,75	3972,00
781,19	3988,00
781,64	3925,00
782,08	3994,00
782,52	3995,00
782,97	3956,00
783,41	3931,00
783,85	3893,00
784,30	3908,00
784,74	3879,00
785,18	3889,00
785,63	3902,00
786,07	3986,00
786,51	3986,00
786,95	3911,00
787,40	3927,00
787,84	3923,00
788,28	3942,00
788,73	3912,00
789,17	3899,00
789,61	3909,00
790,05	3945,00
790,50	3893,00
790,94	3914,00
791,38	3918,00
791,82	3922,00
792,27	3951,00
792,71	3972,00
793,15	3990,00
793,59	3957,00
794,04	3964,00
794,48	3969,00
794,92	3994,00
795,36	3977,00
795,81	3968,00
796,25	3987,00
796,69	4009,00
797,13	4054,00
797,57	4059,00
798,02	4082,00
798,46	4138,00
798,90	4138,00
799,34	4107,00
799,79	4113,00
800,23	4095,00
800,67	4139,00
801,11	4093,00
801,55	4129,00
801,99	4172,00
802,44	4198,00
802,88	4265,00
803,32	4292,00
803,76	4336,00
804,20	4328,00
804,64	4304,00
805,09	4351,00
805,53	4410,00
805,97	4400,00
806,41	4436,00
806,85	4423,00
807,29	4413,00
807,74	4471,00
808,18	4469,00
808,62	4567,00
809,06	4633,00
809,50	4664,00
809,94	4707,00
810,38	4905,00
810,82	4943,00
811,27	5067,00
811,71	5167,00
812,15	5390,00
812,59	5643,00
813,03	5861,00
813,47	6129,00
813,91	6614,00
814,35	7210,00
814,79	8145,00
815,23	9269,00
815,67	11134,00
816,12	14012,00
816,56	18912,00
817,00	26303,00
817,44	33956,00
817,88	42788,00
818,32	47780,00
818,76	49041,00
819,20	50496,00
819,64	45747,00
820,08	43672,00
820,52	38954,00
820,96	31971,00
821,40	25776,00
821,84	21221,00
822,28	17786,00
822,72	15379,00
823,16	13196,00
823,60	11661,00
824,04	10467,00
824,48	9361,00
824,92	8487,00
825,36	7753,00
825,80	7134,00
826,24	6674,00
826,68	6244,00
827,12	5956,00
827,56	5648,00
828,00	5468,00
828,44	5294,00
828,88	5166,00
829,32	4955,00
829,76	4850,00
830,20	4734,00
830,64	4549,00
831,08	4484,00
831,52	4389,00
831,96	4233,00
832,40	4184,00
832,84	4123,00
833,28	4077,00
833,72	4086,00
834,16	4043,00
834,60	4017,00
835,04	3977,00
835,48	3957,00
835,91	3868,00
836,35	3903,00
836,79	3755,00
837,23	3758,00
837,67	3690,00
838,11	3676,00
838,55	3666,00
838,99	3654,00
839,43	3650,00
839,87	3680,00
840,30	3682,00
840,74	3633,00
841,18	3676,00
841,62	3587,00
842,06	3596,00
842,50	3603,00
842,94	3538,00
843,38	3534,00
843,81	3458,00
844,25	3449,00
844,69	3432,00
845,13	3378,00
845,57	3413,00
846,01	3413,00
846,45	3468,00
846,88	3452,00
847,32	3445,00
847,76	3450,00
848,20	3491,00
848,64	3433,00
849,08	3444,00
849,51	3407,00
849,95	3404,00
850,39	3393,00
850,83	3386,00
851,27	3354,00
851,70	3303,00
852,14	3316,00
852,58	3335,00
853,02	3302,00
853,46	3321,00
853,89	3284,00
854,33	3296,00
854,77	3313,00
855,21	3390,00
855,65	3413,00
856,08	3354,00
856,52	3331,00
856,96	3337,00
857,40	3320,00
857,83	3316,00
858,27	3287,00
858,71	3267,00
859,15	3257,00
859,58	3349,00
860,02	3278,00
860,46	3312,00
860,89	3301,00
861,33	3333,00
861,77	3349,00
862,21	3343,00
862,64	3367,00
863,08	3366,00
863,52	3403,00
863,95	3409,00
864,39	3346,00
864,83	3330,00
865,27	3300,00
865,70	3252,00
866,14	3212,00
866,58	3212,00
867,01	3275,00
867,45	3294,00
867,89	3282,00
868,32	3254,00
868,76	3300,00
869,20	3265,00
869,63	3263,00
870,07	3288,00
870,51	3220,00
870,94	3211,00
871,38	3134,00
871,82	3176,00
872,25	3201,00
872,69	3148,00
873,13	3203,00
873,56	3223,00
874,00	3182,00
874,43	3221,00
874,87	3254,00
875,31	3255,00
875,74	3202,00
876,18	3250,00
876,61	3217,00
877,05	3202,00
877,49	3208,00
877,92	3191,00
878,36	3169,00
878,79	3169,00
879,23	3154,00
879,67	3168,00
880,10	3134,00
880,54	3137,00
880,97	3196,00
881,41	3197,00
881,84	3226,00
882,28	3235,00
882,72	3241,00
883,15	3222,00
883,59	3237,00
884,02	3220,00
884,46	3201,00
884,89	3159,00
885,33	3158,00
885,76	3110,00
886,20	3102,00
886,63	3146,00
887,07	3131,00
887,50	3142,00
887,94	3159,00
888,37	3130,00
888,81	3169,00
889,24	3134,00
889,68	3183,00
890,11	3169,00
890,55	3223,00
890,98	3199,00
891,42	3166,00
891,85	3161,00
892,29	3146,00
892,72	3117,00
893,16	3066,00
893,59	3076,00
894,03	3039,00
894,46	3048,00
894,90	2982,00
895,33	2967,00
895,77	2990,00
896,20	3009,00
896,63	3019,00
897,07	3028,00
897,50	2993,00
897,94	3001,00
898,37	3022,00
898,81	2974,00
899,24	2991,00
899,68	2997,00
900,11	2964,00
900,54	2938,00
900,98	2940,00
901,41	2918,00
901,85	2961,00
902,28	2918,00
902,71	2940,00
903,15	2975,00
903,58	2954,00
904,02	2978,00
904,45	3004,00
904,88	2963,00
905,32	2960,00
905,75	2956,00
906,18	2976,00
906,62	2976,00
907,05	2914,00
907,48	2981,00
907,92	2914,00
908,35	2939,00
908,79	2926,00
909,22	2892,00
909,65	2915,00
910,09	2863,00
910,52	2875,00
910,95	2901,00
911,38	2856,00
911,82	2855,00
912,25	2893,00
912,68	2908,00
913,12	2911,00
913,55	2876,00
913,98	2934,00
914,42	2981,00
914,85	2936,00
915,28	2891,00
915,72	2893,00
916,15	2902,00
916,58	2880,00
917,01	2846,00
917,45	2878,00
917,88	2860,00
918,31	2894,00
918,74	2928,00
919,18	2936,00
919,61	2967,00
920,04	2927,00
920,47	2956,00
920,91	2958,00
921,34	2973,00
921,77	2946,00
922,20	2944,00
922,64	2952,00
923,07	2957,00
923,50	2913,00
923,93	2927,00
924,37	2900,00
924,80	2876,00
925,23	2900,00
925,66	2845,00
926,09	2835,00
926,53	2793,00
926,96	2824,00
927,39	2813,00
927,82	2786,00
928,25	2771,00
928,69	2759,00
929,12	2762,00
929,55	2719,00
929,98	2753,00
930,41	2723,00
930,84	2702,00
931,28	2663,00
931,71	2664,00
932,14	2632,00
932,57	2645,00
933,00	2583,00
933,43	2613,00
933,86	2595,00
934,30	2589,00
934,73	2576,00
935,16	2572,00
935,59	2575,00
936,02	2587,00
936,45	2560,00
936,88	2597,00
937,31	2597,00
937,75	2606,00
938,18	2609,00
938,61	2623,00
939,04	2624,00
939,47	2592,00
939,90	2571,00
940,33	2580,00
940,76	2565,00
941,19	2553,00
941,62	2535,00
942,05	2527,00
942,48	2522,00
942,91	2534,00
943,35	2511,00
943,78	2528,00
944,21	2554,00
944,64	2577,00
945,07	2562,00
945,50	2558,00
945,93	2582,00
946,36	2586,00
946,79	2584,00
947,22	2604,00
947,65	2567,00
948,08	2571,00
948,51	2582,00
948,94	2582,00
949,37	2594,00
949,80	2571,00
950,23	2562,00
950,66	2565,00
951,09	2567,00
951,52	2564,00
951,95	2572,00
952,38	2572,00
952,81	2587,00
953,24	2600,00
953,67	2623,00
954,10	2614,00
954,53	2613,00
954,96	2610,00
955,39	2635,00
955,82	2640,00
956,25	2652,00
956,68	2661,00
957,11	2623,00
957,53	2599,00
957,96	2593,00
958,39	2586,00
958,82	2592,00
959,25	2626,00
959,68	2610,00
960,11	2625,00
960,54	2631,00
960,97	2641,00
961,40	2633,00
961,83	2642,00
962,26	2658,00
962,68	2681,00
963,11	2705,00
963,54	2684,00
963,97	2691,00
964,40	2656,00
964,83	2682,00
965,26	2657,00
965,69	2656,00
966,11	2651,00
966,54	2645,00
966,97	2674,00
967,40	2665,00
967,83	2705,00
968,26	2685,00
968,69	2676,00
969,11	2712,00
969,54	2673,00
969,97	2706,00
970,40	2705,00
970,83	2697,00
971,26	2694,00
971,68	2704,00
972,11	2721,00
972,54	2703,00
972,97	2714,00
973,40	2688,00
973,82	2695,00
974,25	2687,00
974,68	2669,00
975,11	2680,00
975,54	2667,00
975,96	2655,00
976,39	2662,00
976,82	2693,00
977,25	2672,00
977,67	2687,00
978,10	2706,00
978,53	2690,00
978,96	2700,00
979,38	2732,00
979,81	2709,00
980,24	2723,00
980,67	2746,00
981,09	2765,00
981,52	2735,00
981,95	2735,00
982,38	2760,00
982,80	2748,00
983,23	2770,00
983,66	2740,00
984,08	2752,00
984,51	2738,00
984,94	2734,00
985,37	2761,00
985,79	2727,00
986,22	2734,00
986,65	2748,00
987,07	2720,00
987,50	2735,00
987,93	2736,00
988,35	2736,00
988,78	2771,00
989,21	2754,00
989,63	2771,00
990,06	2809,00
990,49	2796,00
990,91	2840,00
991,34	2830,00
991,77	2831,00
992,19	2815,00
992,62	2810,00
993,05	2820,00
993,47	2842,00
993,90	2810,00
994,32	2775,00
994,75	2788,00
995,18	2763,00
995,60	2766,00
996,03	2758,00
996,45	2750,00
996,88	2772,00
997,31	2767,00
997,73	2768,00
998,16	2748,00
998,58	2759,00
999,01	2755,00
999,44	2746,00
999,86	2759,00
1000,29	2762,00
1000,71	2766,00
1001,14	2742,00
1001,56	2769,00
1001,99	2739,00
1002,41	2699,00
1002,84	2732,00
1003,27	2684,00
1003,69	2680,00
1004,12	2679,00
1004,54	2689,00
1004,97	2674,00
1005,39	2650,00
1005,82	2664,00
1006,24	2650,00
1006,67	2652,00
1007,09	2666,00
1007,52	2657,00
1007,94	2640,00
1008,37	2665,00
1008,79	2657,00
1009,22	2649,00
1009,64	2653,00
1010,07	2650,00
1010,49	2664,00
1010,92	2652,00
1011,34	2660,00
1011,77	2652,00
1012,19	2636,00
1012,62	2649,00
1013,04	2625,00
1013,46	2611,00
1013,89	2614,00
1014,31	2620,00
1014,74	2610,00
1015,16	2600,00
1015,59	2591,00
1016,01	2595,00
1016,44	2606,00
1016,86	2743,00
1017,28	2601,00
1017,71	2591,00
1018,13	2624,00
1018,56	2642,00
1018,98	2626,00
1019,40	2607,00
1019,83	2627,00
1020,25	2622,00
1020,68	2603,00
1021,10	2665,00
1021,52	2604,00
1021,95	2639,00
1022,37	2623,00
1022,79	2606,00
1023,22	2603,00
1023,64	2610,00
1024,07	2601,00
1024,49	2600,00
1024,91	2596,00
1025,34	2596,00
1025,76	2615,00
1026,18	2592,00
1026,61	2586,00
1027,03	2568,00
1027,45	2608,00
1027,88	2608,00
1028,30	2612,00
1028,72	2606,00
1029,15	2600,00
1029,57	2599,00
1029,99	2611,00
1030,41	2575,00
1030,84	2602,00
1031,26	2586,00
1031,68	2584,00
1032,11	2589,00
1032,53	2573,00
1032,95	2567,00
1033,37	2566,00
1033,80	2571,00
1034,22	2533,00
1034,64	2605,00
1035,06	2533,00
1035,49	2529,00
1035,91	2553,00
1036,33	2541,00
1036,75	2549,00
1037,18	2560,00
1037,60	2527,00
1038,02	2555,00
1038,44	2572,00
1038,87	2547,00
1039,29	2560,00
1039,71	2542,00
1040,13	2532,00
1040,55	2545,00
1040,98	2552,00
1041,40	2553,00
1041,82	2546,00
1042,24	2547,00
1042,66	2537,00
1043,09	2528,00
1043,51	2550,00
1043,93	2531,00
1044,35	2522,00
1044,77	2540,00
1045,20	2530,00
1045,62	2505,00
1046,04	2514,00
1046,46	2513,00
1046,88	2519,00
1047,30	2512,00
1047,72	2491,00
1048,15	2513,00
1048,57	2498,00
1048,99	2504,00
1049,41	2494,00
1049,83	2511,00
1050,25	2504,00
1050,67	2497,00
1051,09	2495,00
1051,52	2497,00
1051,94	2486,00
1052,36	2478,00
1052,78	2454,00
1053,20	2492,00
1053,62	2458,00
1054,04	2487,00
1054,46	2480,00
1054,88	2487,00
1055,30	2488,00
1055,72	2458,00
1056,14	2451,00
1056,57	2503,00
1056,99	2450,00
1057,41	2470,00
1057,83	2462,00
1058,25	2450,00
1058,67	2451,00
1059,09	2443,00
1059,51	2450,00
1059,93	2455,00
1060,35	2455,00
1060,77	2441,00
1061,19	2472,00
1061,61	2440,00
1062,03	2462,00
1062,45	2438,00
1062,87	2467,00
1063,29	2457,00
1063,71	2447,00
1064,13	2439,00
1064,55	2441,00
1064,97	2445,00
1065,39	2451,00
1065,81	2431,00
1066,23	2442,00
1066,65	2445,00
1067,07	2461,00
1067,49	2465,00
1067,91	2438,00
1068,33	2429,00
1068,75	2479,00
1069,17	2462,00
1069,59	2449,00
1070,00	2453,00
1070,42	2463,00
1070,84	2477,00
1071,26	2473,00
1071,68	2480,00
1072,10	2503,00
1072,52	2498,00
1072,94	2498,00
1073,36	2510,00
1073,78	2503,00
1074,20	2464,00
1074,62	2482,00
1075,03	2475,00
1075,45	2474,00
1075,87	2473,00
1076,29	2452,00
1076,71	2462,00
1077,13	2462,00
1077,55	2446,00
1077,97	2461,00
1078,38	2460,00
1078,80	2466,00
1079,22	2436,00
1079,64	2446,00
1080,06	2444,00
1080,48	2450,00
1080,89	2424,00
1081,31	2431,00
1081,73	2431,00
1082,15	2444,00
1082,57	2432,00
1082,99	2434,00
1083,40	2432,00
1083,82	2430,00
1084,24	2431,00
1084,66	2405,00
1085,08	2428,00
1085,49	2413,00
1085,91	2419,00
1086,33	2650,00
1086,75	2421,00
1087,17	2402,00
1087,58	2401,00
1088,00	2407,00
1088,42	2407,00
1088,84	2396,00
1089,25	2409,00
1089,67	2397,00
1090,09	2393,00
1090,51	2394,00
1090,92	2397,00
1091,34	2397,00
1091,76	2385,00
1092,18	2371,00
1092,59	2382,00
1093,01	2382,00
1093,43	2385,00
1093,84	2381,00
1094,26	2383,00
1094,68	2371,00
1095,10	2361,00
1095,51	2370,00
1095,93	2369,00
1096,35	2377,00
1096,76	2371,00
1097,18	2379,00
1097,60	2364,00
1098,01	2376,00
1098,43	2367,00
1098,85	2364,00
1099,26	2356,00
1099,68	2364,00
1100,10	2357,00
1100,51	2358,00
1100,93	2350,00
1101,35	2365,00
1101,76	2359,00
1102,18	2389,00
1102,60	2353,00
1103,01	2340,00
1103,43	2363,00
1103,84	2346,00
1104,26	2337,00
1104,68	2352,00
1105,09	2325,00
1105,51	2352,00
1105,92	2361,00
1106,34	2355,00
1106,76	2362,00
1107,17	2343,00
1107,59	2346,00
1108,00	2329,00
1108,42	2338,00
1108,83	2332,00
1109,25	2341,00
1109,67	2324,00
1110,08	2335,00
1110,50	2324,00
1110,91	2339,00
1111,33	2331,00
1111,74	2326,00
1112,16	2327,00
1112,57	2337,00
1112,99	2329,00
1113,41	2327,00
1113,82	2341,00
1114,24	2336,00
1114,65	2327,00
1115,07	2330,00
1115,48	2308,00
1115,90	2194,00
1116,31	2195,00
1116,73	2199,00
1117,14	2202,00
>>>>>End Processed Spectral Data<<<<<
