SpectraSuite Data File
++++++++++++++++++++++++++++++++++++
Date: Mon Mar 10 17:59:39 EET 2014
User: OO Maya
Dark Spectrum Present: No
Reference Spectrum Present: No
Number of Sampled Component Spectra: 1
Spectrometers: MAYP11278
Integration Time (usec): 3000000 (MAYP11278)
Spectra Averaged: 6 (MAYP11278)
Boxcar Smoothing: 0 (MAYP11278)
Correct for Electrical Dark: No (MAYP11278)
Strobe/Lamp Enabled: No (MAYP11278)
Correct for Detector Non-linearity: No (MAYP11278)
Correct for Stray Light: No (MAYP11278)
Number of Pixels in Processed Spectrum: 2068
>>>>>Begin Processed Spectral Data<<<<<
188,05	2311,00
188,53	2222,67
189,01	2195,67
189,49	2194,33
189,96	7254,00
190,44	7642,17
190,92	7661,83
191,40	7736,67
191,88	8048,00
192,36	7696,83
192,83	7543,67
193,31	7364,33
193,79	7706,00
194,27	7612,67
194,75	7775,00
195,23	7614,33
195,70	7986,67
196,18	7579,83
196,66	7690,33
197,14	8606,50
197,62	7737,33
198,09	7457,17
198,57	7570,17
199,05	7461,00
199,53	7830,50
200,01	7993,00
200,48	7601,33
200,96	7678,50
201,44	8008,00
201,92	7995,83
202,39	7967,67
202,87	7408,83
203,35	7870,83
203,83	7507,17
204,31	8065,00
204,78	8160,83
205,26	7602,83
205,74	7573,17
206,22	8225,33
206,69	7661,17
207,17	7883,83
207,65	8700,83
208,13	7798,83
208,60	8007,50
209,08	7657,33
209,56	8114,50
210,04	7958,50
210,51	7770,83
210,99	7745,17
211,47	7924,00
211,94	7782,83
212,42	7607,33
212,90	8429,67
213,38	7983,17
213,85	7644,17
214,33	8411,17
214,81	7910,33
215,29	8290,67
215,76	7927,67
216,24	8001,17
216,72	8024,33
217,19	8012,00
217,67	7646,67
218,15	7803,50
218,62	8260,33
219,10	7423,17
219,58	7624,17
220,05	7672,67
220,53	7817,33
221,01	9292,83
221,49	7680,83
221,96	8124,83
222,44	7636,50
222,92	8088,50
223,39	7716,33
223,87	8147,50
224,35	7845,33
224,82	7766,17
225,30	7558,83
225,78	7804,67
226,25	7638,00
226,73	7892,00
227,21	8226,67
227,68	7787,67
228,16	8005,17
228,63	8073,83
229,11	8040,50
229,59	7778,50
230,06	7853,83
230,54	7718,50
231,02	8077,67
231,49	8193,00
231,97	7869,33
232,45	7946,67
232,92	7585,17
233,40	7925,33
233,87	7969,50
234,35	9108,33
234,83	7950,83
235,30	7679,17
235,78	7678,17
236,25	7496,33
236,73	8197,83
237,21	8577,50
237,68	7723,50
238,16	7940,83
238,63	7926,17
239,11	7951,17
239,59	7922,67
240,06	7514,83
240,54	8087,00
241,01	8303,17
241,49	7960,33
241,96	7781,67
242,44	8152,17
242,92	8310,83
243,39	7526,00
243,87	7729,67
244,34	8192,50
244,82	8361,17
245,29	7796,33
245,77	8351,67
246,24	8294,17
246,72	7682,50
247,20	7919,00
247,67	7909,17
248,15	7975,67
248,62	8064,83
249,10	7447,67
249,57	7907,00
250,05	8175,50
250,52	7978,33
251,00	8375,00
251,47	7979,00
251,95	8601,00
252,42	8342,33
252,90	7803,50
253,37	8365,50
253,85	7944,33
254,32	7892,50
254,80	8013,00
255,27	8015,50
255,75	8206,67
256,22	7749,50
256,70	8010,33
257,17	8067,17
257,65	8273,00
258,12	8923,17
258,60	7995,33
259,07	7785,17
259,55	7973,33
260,02	8166,33
260,50	8511,00
260,97	7842,67
261,45	7797,83
261,92	8314,83
262,40	7702,33
262,87	8002,00
263,35	7909,67
263,82	7546,50
264,30	8192,17
264,77	8293,67
265,25	7802,83
265,72	7988,00
266,19	8045,17
266,67	8127,67
267,14	7871,17
267,62	7894,50
268,09	7983,00
268,57	8060,83
269,04	7427,83
269,51	7725,33
269,99	7761,33
270,46	8160,83
270,94	8302,83
271,41	7834,83
271,89	7984,83
272,36	7574,00
272,83	7582,67
273,31	7359,50
273,78	7936,00
274,26	9169,17
274,73	8193,67
275,20	8186,00
275,68	7781,33
276,15	7906,17
276,63	8103,50
277,10	8190,50
277,57	7639,50
278,05	7897,83
278,52	7620,67
279,00	9332,50
279,47	7816,67
279,94	7791,17
280,42	9253,00
280,89	8269,00
281,36	9017,67
281,84	7696,33
282,31	8324,83
282,78	7866,67
283,26	7885,00
283,73	8117,50
284,21	7683,33
284,68	7601,33
285,15	8201,50
285,63	7877,33
286,10	8061,50
286,57	8022,00
287,05	7523,33
287,52	8109,00
287,99	8472,33
288,47	7840,33
288,94	8155,00
289,41	7401,33
289,89	8468,67
290,36	7692,17
290,83	8068,83
291,30	7801,33
291,78	8138,00
292,25	8741,50
292,72	7702,67
293,20	8272,67
293,67	7787,67
294,14	8140,33
294,62	8099,00
295,09	7760,67
295,56	7955,50
296,03	8047,83
296,51	8589,17
296,98	8461,50
297,45	8142,67
297,93	8049,67
298,40	8083,17
298,87	7883,00
299,34	8470,83
299,82	7916,67
300,29	8099,50
300,76	7782,17
301,23	8332,83
301,71	8297,83
302,18	8235,50
302,65	7710,50
303,12	8219,00
303,60	8278,50
304,07	7643,67
304,54	7845,00
305,01	7716,83
305,49	8002,83
305,96	8121,00
306,43	8085,83
306,90	8169,33
307,38	7857,33
307,85	7830,50
308,32	8056,50
308,79	7829,17
309,27	8260,00
309,74	8302,17
310,21	8095,67
310,68	8028,67
311,15	8099,83
311,63	7757,33
312,10	8306,50
312,57	7991,17
313,04	8583,00
313,51	7813,33
313,99	7842,50
314,46	8054,83
314,93	7827,33
315,40	7737,83
315,87	8316,50
316,34	8149,83
316,82	8081,67
317,29	8183,83
317,76	8084,83
318,23	8971,83
318,70	8003,50
319,17	7940,67
319,65	7565,17
320,12	8138,83
320,59	8659,83
321,06	8216,50
321,53	7873,17
322,00	7472,67
322,48	7677,17
322,95	8542,17
323,42	7896,33
323,89	8823,17
324,36	7571,00
324,83	8061,17
325,30	7952,50
325,78	7892,33
326,25	7900,33
326,72	7833,17
327,19	8198,50
327,66	8102,67
328,13	8168,00
328,60	8046,00
329,07	7910,67
329,54	7846,17
330,02	7862,67
330,49	7730,00
330,96	8288,33
331,43	8105,17
331,90	8584,83
332,37	7706,00
332,84	8657,83
333,31	8230,50
333,78	8163,83
334,25	8448,83
334,72	8112,67
335,20	8182,83
335,67	9258,83
336,14	7678,50
336,61	7917,50
337,08	7843,00
337,55	8078,67
338,02	7871,67
338,49	7851,17
338,96	8514,83
339,43	8258,17
339,90	7684,17
340,37	7765,00
340,84	7667,33
341,31	8156,17
341,78	8293,00
342,25	7807,00
342,72	8028,33
343,19	8210,33
343,67	8052,50
344,14	7852,67
344,61	7987,50
345,08	7746,67
345,55	7977,50
346,02	8199,67
346,49	7839,67
346,96	7735,50
347,43	8523,00
347,90	7819,83
348,37	8324,50
348,84	7993,50
349,31	7561,50
349,78	7985,67
350,25	8239,33
350,72	8006,83
351,19	7705,50
351,66	8081,00
352,13	8619,50
352,60	8066,83
353,07	7878,83
353,54	8013,67
354,01	8187,50
354,48	8124,83
354,94	8208,83
355,41	8043,83
355,88	8563,50
356,35	7788,17
356,82	8563,83
357,29	7663,00
357,76	8764,50
358,23	8194,83
358,70	7636,83
359,17	7665,00
359,64	7813,50
360,11	7824,17
360,58	8240,17
361,05	8492,33
361,52	7879,17
361,99	7930,00
362,46	7993,67
362,93	7894,50
363,39	7991,17
363,86	8810,00
364,33	8193,17
364,80	7786,83
365,27	8199,83
365,74	7822,00
366,21	7629,67
366,68	8028,33
367,15	8025,67
367,62	12841,17
368,09	7396,00
368,55	7687,83
369,02	8282,00
369,49	7653,83
369,96	8299,67
370,43	8053,83
370,90	7852,83
371,37	7823,33
371,84	8163,67
372,31	7752,17
372,77	7539,33
373,24	7839,00
373,71	8007,00
374,18	7669,00
374,65	7687,83
375,12	8038,67
375,59	7473,00
376,05	8540,83
376,52	7819,33
376,99	7650,50
377,46	7585,17
377,93	8037,83
378,40	8042,33
378,86	7934,83
379,33	7974,67
379,80	7922,17
380,27	8165,17
380,74	8490,17
381,21	8005,83
381,67	8511,83
382,14	8512,17
382,61	7556,83
383,08	8094,83
383,55	7835,83
384,02	8325,17
384,48	8014,83
384,95	9765,83
385,42	7971,50
385,89	7789,50
386,36	7892,83
386,82	8596,67
387,29	7646,50
387,76	7581,17
388,23	8282,00
388,69	8067,33
389,16	8353,33
389,63	7706,83
390,10	8168,17
390,57	8070,17
391,03	8125,00
391,50	8051,33
391,97	8008,33
392,44	8069,83
392,90	7887,50
393,37	7860,17
393,84	8776,00
394,31	7915,33
394,77	8375,50
395,24	7736,33
395,71	8198,83
396,18	9675,50
396,64	7595,00
397,11	8138,33
397,58	8292,50
398,05	7639,83
398,51	7925,83
398,98	7797,00
399,45	7640,33
399,92	8318,33
400,38	7617,50
400,85	7886,83
401,32	7788,17
401,78	8090,17
402,25	8037,00
402,72	7929,00
403,18	7700,17
403,65	8484,50
404,12	7915,17
404,59	8433,83
405,05	8613,67
405,52	8401,00
405,99	7708,17
406,45	8238,50
406,92	8125,67
407,39	8727,67
407,85	7949,83
408,32	8013,17
408,79	8119,83
409,25	7616,67
409,72	8347,83
410,19	7641,83
410,65	8407,50
411,12	7730,00
411,59	8371,83
412,05	7852,67
412,52	7422,50
412,99	8116,83
413,45	7842,50
413,92	8055,83
414,39	8135,17
414,85	8565,83
415,32	7904,50
415,78	8516,33
416,25	8079,17
416,72	8025,17
417,18	8602,17
417,65	8100,00
418,12	7892,83
418,58	7987,67
419,05	7978,00
419,51	8244,67
419,98	7767,83
420,45	8239,83
420,91	7672,33
421,38	7957,50
421,84	7789,50
422,31	8143,17
422,78	7745,33
423,24	7899,00
423,71	8087,83
424,17	8229,67
424,64	7960,67
425,11	8254,67
425,57	7945,67
426,04	8427,83
426,50	7865,17
426,97	8385,50
427,43	8193,17
427,90	8300,00
428,37	7651,33
428,83	8324,67
429,30	8124,50
429,76	7987,00
430,23	8104,50
430,69	9101,33
431,16	7564,17
431,62	7866,50
432,09	8548,33
432,55	8309,67
433,02	7902,67
433,48	7718,17
433,95	7959,50
434,42	7831,83
434,88	8198,33
435,35	7602,00
435,81	8196,50
436,28	8060,50
436,74	7599,33
437,21	8222,17
437,67	8094,17
438,14	8022,17
438,60	7711,50
439,07	7862,50
439,53	9366,17
440,00	8111,33
440,46	8253,83
440,93	8355,83
441,39	7718,50
441,86	7856,83
442,32	8925,17
442,79	7662,67
443,25	7985,50
443,72	8052,33
444,18	7587,33
444,64	8521,17
445,11	8188,50
445,57	8015,33
446,04	7959,83
446,50	8089,83
446,97	7923,67
447,43	8002,50
447,90	7791,00
448,36	7750,83
448,83	8133,83
449,29	8159,00
449,75	7897,00
450,22	7705,83
450,68	7642,00
451,15	7794,33
451,61	8073,83
452,08	8243,17
452,54	7700,50
453,00	8361,83
453,47	7923,00
453,93	7895,33
454,40	7965,50
454,86	8129,33
455,32	7798,00
455,79	7989,00
456,25	8250,00
456,72	7790,17
457,18	8467,17
457,64	7881,67
458,11	7939,67
458,57	7647,00
459,04	8014,33
459,50	7918,00
459,96	8018,17
460,43	7827,83
460,89	7628,00
461,36	8506,33
461,82	8284,33
462,28	7715,33
462,75	7567,83
463,21	8328,50
463,67	7860,50
464,14	8031,33
464,60	8036,33
465,06	7679,83
465,53	7787,33
465,99	8256,67
466,45	7957,83
466,92	8108,33
467,38	8122,50
467,84	7924,83
468,31	8048,17
468,77	8051,83
469,23	7912,83
469,70	7700,50
470,16	8095,67
470,62	7999,00
471,09	7798,17
471,55	7907,00
472,01	7707,33
472,48	7800,50
472,94	7859,33
473,40	8441,67
473,87	7933,83
474,33	7701,50
474,79	7915,83
475,25	7622,83
475,72	8071,17
476,18	7958,50
476,64	8129,17
477,11	7920,33
477,57	7994,83
478,03	8446,83
478,49	8068,50
478,96	8328,50
479,42	7715,50
479,88	8613,00
480,35	8118,00
480,81	8072,50
481,27	7854,00
481,73	7958,00
482,20	8031,83
482,66	7632,33
483,12	7880,17
483,58	7601,17
484,05	7896,67
484,51	8519,00
484,97	8076,33
485,43	7960,50
485,89	7487,17
486,36	7915,00
486,82	7482,17
487,28	8097,50
487,74	7559,00
488,21	7555,83
488,67	7745,67
489,13	8016,67
489,59	7958,67
490,05	8299,83
490,52	7601,83
490,98	7971,67
491,44	7587,50
491,90	7768,83
492,36	7456,17
492,83	8316,67
493,29	8020,83
493,75	7958,67
494,21	7671,67
494,67	7847,17
495,14	7682,33
495,60	7648,33
496,06	7991,17
496,52	7758,33
496,98	7881,83
497,44	8618,33
497,91	8331,50
498,37	7756,33
498,83	7990,50
499,29	7877,50
499,75	8811,67
500,21	7961,00
500,67	7763,00
501,14	7908,50
501,60	7821,17
502,06	8160,17
502,52	7934,50
502,98	7937,00
503,44	7911,33
503,90	8115,83
504,37	7769,33
504,83	8093,50
505,29	8040,33
505,75	7698,33
506,21	7937,67
506,67	8251,50
507,13	7907,33
507,59	8141,50
508,05	8057,17
508,51	7714,17
508,98	7694,67
509,44	7486,00
509,90	7838,17
510,36	7919,00
510,82	7708,33
511,28	8393,17
511,74	8404,33
512,20	7708,33
512,66	7481,33
513,12	7715,00
513,58	8108,33
514,04	7361,67
514,51	8260,83
514,97	8608,50
515,43	7466,33
515,89	8043,50
516,35	8280,17
516,81	8254,33
517,27	8813,33
517,73	8101,00
518,19	7931,17
518,65	9249,83
519,11	7946,00
519,57	7734,50
520,03	7586,83
520,49	7721,83
520,95	7954,17
521,41	8127,17
521,87	8180,33
522,33	7908,83
522,79	7578,17
523,25	8532,33
523,71	8225,67
524,17	7776,00
524,63	8487,00
525,09	8149,33
525,55	8147,00
526,01	8413,83
526,47	8038,00
526,93	7952,67
527,39	7812,50
527,85	7882,50
528,31	8212,83
528,77	8185,67
529,23	7873,00
529,69	7623,00
530,15	8126,33
530,61	8177,50
531,07	7498,50
531,53	8350,50
531,99	7954,33
532,45	7954,33
532,91	7954,17
533,37	8118,17
533,83	7878,17
534,29	7611,83
534,75	7837,83
535,21	7743,33
535,67	8010,83
536,12	7744,50
536,58	8067,33
537,04	7623,33
537,50	8127,67
537,96	7902,83
538,42	7919,33
538,88	8579,33
539,34	8148,83
539,80	9893,33
540,26	7563,17
540,72	8555,83
541,18	7988,83
541,63	7579,00
542,09	8149,83
542,55	8109,67
543,01	7798,33
543,47	8956,67
543,93	7556,67
544,39	8691,33
544,85	8194,83
545,31	7882,00
545,76	7864,50
546,22	8335,17
546,68	7953,33
547,14	8071,33
547,60	8236,83
548,06	8022,33
548,52	7867,67
548,98	7811,67
549,43	7711,67
549,89	8745,33
550,35	7847,00
550,81	7602,67
551,27	8066,00
551,73	7966,67
552,19	8619,33
552,64	8022,17
553,10	7674,00
553,56	8125,83
554,02	7871,00
554,48	7664,67
554,93	8048,67
555,39	8029,50
555,85	8571,50
556,31	8050,17
556,77	8409,17
557,23	7455,50
557,68	8064,67
558,14	8742,83
558,60	7850,83
559,06	7854,33
559,52	7674,00
559,97	7713,17
560,43	7655,00
560,89	7955,67
561,35	7849,00
561,81	7931,33
562,26	7767,50
562,72	7712,67
563,18	7954,50
563,64	8318,67
564,09	7668,17
564,55	8008,33
565,01	7836,50
565,47	7848,00
565,92	7987,67
566,38	8342,00
566,84	7851,50
567,30	7774,83
567,75	7987,67
568,21	8299,17
568,67	7775,17
569,13	7883,83
569,58	8213,33
570,04	7995,00
570,50	7958,67
570,96	8205,17
571,41	8171,00
571,87	7901,33
572,33	8000,50
572,78	8105,00
573,24	7734,33
573,70	7742,83
574,16	7932,33
574,61	8380,17
575,07	8239,00
575,53	7596,50
575,98	7984,50
576,44	7365,33
576,90	8343,17
577,36	7820,33
577,81	7823,33
578,27	7606,67
578,73	8418,00
579,18	7946,67
579,64	7734,33
580,10	8040,00
580,55	8037,67
581,01	7942,00
581,47	7928,83
581,92	7998,33
582,38	7915,83
582,84	7569,17
583,29	7938,50
583,75	8010,00
584,21	7889,17
584,66	8147,83
585,12	7743,67
585,57	8925,50
586,03	7864,33
586,49	7890,50
586,94	7856,33
587,40	7902,33
587,86	8282,33
588,31	7616,00
588,77	8091,67
589,22	7906,17
589,68	7708,00
590,14	8077,83
590,59	8209,83
591,05	7810,50
591,51	7492,33
591,96	8399,17
592,42	7762,83
592,87	8092,83
593,33	7924,50
593,78	8261,67
594,24	7975,67
594,70	7894,33
595,15	8401,50
595,61	7828,00
596,06	7689,33
596,52	8448,33
596,98	8235,83
597,43	8375,33
597,89	8015,17
598,34	7556,67
598,80	7954,33
599,25	8398,17
599,71	7724,00
600,16	8148,33
600,62	8338,83
601,08	8092,67
601,53	8216,33
601,99	7592,17
602,44	9084,50
602,90	7808,83
603,35	7970,17
603,81	7524,33
604,26	7456,00
604,72	8130,17
605,17	7853,33
605,63	8133,50
606,08	7950,50
606,54	7526,50
606,99	7977,33
607,45	7854,67
607,90	7954,67
608,36	8177,33
608,81	7957,17
609,27	8861,00
609,72	8217,50
610,18	7920,67
610,63	7760,50
611,09	8054,33
611,54	7553,17
612,00	8587,00
612,45	8135,83
612,91	7946,00
613,36	9068,17
613,82	7547,67
614,27	7562,00
614,73	7573,67
615,18	7570,67
615,64	7846,67
616,09	7938,50
616,54	7639,17
617,00	7869,67
617,45	7899,50
617,91	8198,83
618,36	7711,00
618,82	7808,50
619,27	7827,50
619,72	8168,67
620,18	7819,67
620,63	8241,67
621,09	8306,50
621,54	7893,17
622,00	8252,50
622,45	8423,33
622,90	8277,67
623,36	7696,83
623,81	7716,50
624,27	8266,00
624,72	7565,33
625,17	7896,00
625,63	8024,00
626,08	7617,00
626,54	7867,67
626,99	8025,33
627,44	7608,50
627,90	8138,17
628,35	8218,33
628,81	7439,33
629,26	7874,17
629,71	7956,17
630,17	7711,67
630,62	8077,67
631,07	7889,50
631,53	8203,83
631,98	8043,50
632,43	8345,83
632,89	7741,17
633,34	7778,67
633,79	7690,67
634,25	7740,33
634,70	7597,50
635,15	7849,00
635,61	7703,33
636,06	7543,17
636,51	7888,83
636,97	7858,83
637,42	7647,50
637,87	8171,50
638,33	8254,00
638,78	7776,00
639,23	7914,83
639,69	7647,67
640,14	7404,33
640,59	7999,17
641,05	8193,00
641,50	7494,50
641,95	7774,67
642,40	7808,33
642,86	7455,50
643,31	7726,67
643,76	8103,67
644,22	7692,67
644,67	7562,17
645,12	7764,67
645,57	7599,83
646,03	7907,83
646,48	7942,50
646,93	8030,50
647,38	8152,67
647,84	7987,67
648,29	7993,67
648,74	7540,83
649,19	8333,50
649,65	8020,33
650,10	9489,17
650,55	7601,00
651,00	7647,50
651,46	7718,67
651,91	7979,17
652,36	7600,83
652,81	7839,67
653,27	7760,50
653,72	7617,83
654,17	7902,00
654,62	7985,50
655,07	7819,50
655,53	7546,17
655,98	8172,50
656,43	7632,50
656,88	7859,33
657,33	8114,83
657,79	8137,50
658,24	7631,83
658,69	7960,33
659,14	7585,33
659,59	9456,33
660,05	7757,50
660,50	8315,33
660,95	7834,67
661,40	7597,67
661,85	7873,50
662,30	7608,00
662,76	7403,00
663,21	8008,83
663,66	7787,50
664,11	7748,17
664,56	7833,17
665,01	7556,50
665,47	7930,50
665,92	7508,33
666,37	7977,83
666,82	7928,50
667,27	8805,67
667,72	8366,17
668,17	7662,17
668,62	8035,83
669,08	7621,33
669,53	8717,50
669,98	7392,17
670,43	7621,17
670,88	8281,83
671,33	7877,67
671,78	8465,67
672,23	8741,33
672,69	7913,67
673,14	7882,17
673,59	8322,33
674,04	9099,00
674,49	7949,00
674,94	7990,50
675,39	7447,33
675,84	7525,00
676,29	7941,67
676,74	7789,17
677,19	7838,00
677,64	7806,50
678,10	8835,83
678,55	7713,67
679,00	7832,33
679,45	7972,50
679,90	7694,50
680,35	7825,33
680,80	7854,50
681,25	7262,67
681,70	7346,00
682,15	7725,83
682,60	7854,17
683,05	8069,17
683,50	8054,33
683,95	7985,50
684,40	8319,33
684,85	8075,83
685,30	7952,33
685,75	8046,33
686,20	7807,50
686,65	7551,17
687,10	7919,83
687,55	7658,67
688,00	7898,33
688,45	7847,83
688,90	8954,50
689,35	8107,50
689,80	7399,00
690,25	7735,33
690,70	7898,33
691,15	7442,83
691,60	7868,00
692,05	7413,50
692,50	7859,33
692,95	7735,50
693,40	8028,17
693,85	8048,17
694,30	7860,50
694,75	7945,00
695,20	9539,00
695,65	7938,67
696,10	7888,67
696,55	8571,17
697,00	7858,50
697,45	7709,17
697,90	8034,00
698,35	7664,67
698,80	8146,67
699,24	8099,50
699,69	7704,00
700,14	7804,33
700,59	8126,33
701,04	8188,50
701,49	9334,17
701,94	7531,83
702,39	8424,17
702,84	7648,67
703,29	7757,67
703,74	7944,50
704,19	7798,83
704,63	7709,17
705,08	8270,67
705,53	8249,33
705,98	8231,50
706,43	7530,83
706,88	8091,83
707,33	7899,50
707,78	7803,50
708,22	8050,33
708,67	8195,83
709,12	7950,17
709,57	7732,67
710,02	7842,83
710,47	7836,67
710,92	7646,67
711,37	8076,00
711,81	7920,17
712,26	7912,17
712,71	7604,17
713,16	8644,50
713,61	7865,67
714,06	7896,17
714,50	8401,67
714,95	8216,33
715,40	7825,33
715,85	7917,83
716,30	7741,17
716,75	7734,33
717,19	7573,00
717,64	7461,50
718,09	8068,50
718,54	8513,33
718,99	7539,83
719,43	7540,83
719,88	7869,17
720,33	7845,50
720,78	7655,50
721,23	7978,50
721,67	7731,00
722,12	8143,33
722,57	7806,50
723,02	7506,67
723,47	7457,83
723,91	7951,83
724,36	7395,50
724,81	8058,00
725,26	7397,50
725,70	7824,67
726,15	7773,67
726,60	7881,17
727,05	8548,17
727,49	7601,00
727,94	8386,50
728,39	8031,50
728,84	7759,67
729,28	8272,33
729,73	7689,50
730,18	8192,67
730,63	7573,17
731,07	7883,33
731,52	8042,67
731,97	7936,67
732,41	8009,83
732,86	7621,50
733,31	8080,67
733,76	7967,83
734,20	7672,50
734,65	8154,50
735,10	8091,50
735,54	7892,00
735,99	8901,33
736,44	7616,00
736,89	7907,83
737,33	8177,67
737,78	8120,00
738,23	7910,83
738,67	7802,33
739,12	7914,33
739,57	7496,33
740,01	8272,00
740,46	8032,00
740,91	7595,67
741,35	8047,17
741,80	8131,33
742,25	7858,67
742,69	7967,17
743,14	7569,50
743,59	7652,00
744,03	7837,50
744,48	8263,17
744,92	8187,33
745,37	8082,50
745,82	8176,33
746,26	8386,17
746,71	7259,83
747,16	7589,17
747,60	7457,67
748,05	8074,00
748,49	7829,00
748,94	7663,17
749,39	7982,50
749,83	8930,67
750,28	7895,67
750,73	7792,00
751,17	7504,33
751,62	7709,83
752,06	7700,50
752,51	7806,50
752,95	8579,00
753,40	7675,50
753,85	7834,33
754,29	7500,17
754,74	7758,33
755,18	7549,00
755,63	7778,67
756,07	7880,83
756,52	8292,33
756,97	7746,67
757,41	8313,17
757,86	7878,67
758,30	7796,83
758,75	7797,50
759,19	7821,33
759,64	7497,00
760,08	7764,17
760,53	8010,83
760,98	7842,50
761,42	8091,17
761,87	8313,83
762,31	7785,83
762,76	7481,83
763,20	7783,33
763,65	8165,00
764,09	7821,17
764,54	7509,33
764,98	7703,33
765,43	7975,00
765,87	7546,50
766,32	7540,33
766,76	7647,00
767,21	7860,50
767,65	7893,67
768,10	7987,17
768,54	8096,50
768,99	7818,50
769,43	8639,17
769,88	7570,83
770,32	7824,50
770,77	7593,17
771,21	7563,33
771,65	8050,00
772,10	7947,00
772,54	7944,50
772,99	7431,17
773,43	7731,67
773,88	7731,50
774,32	7305,00
774,77	7818,00
775,21	7597,83
775,65	7960,17
776,10	7873,50
776,54	7503,50
776,99	7774,67
777,43	7747,00
777,88	7985,83
778,32	8067,83
778,76	7717,50
779,21	7893,50
779,65	8955,67
780,10	8412,67
780,54	7853,50
780,99	8240,83
781,43	8043,33
781,87	7609,00
782,32	7947,50
782,76	7515,83
783,20	7727,33
783,65	8061,83
784,09	8133,33
784,54	7839,67
784,98	7762,33
785,42	7739,33
785,87	7603,00
786,31	8110,17
786,75	8238,33
787,20	8256,50
787,64	7574,83
788,09	7634,67
788,53	7931,67
788,97	7644,00
789,42	7734,17
789,86	7723,83
790,30	7883,67
790,75	7549,17
791,19	7621,83
791,63	8221,50
792,08	7762,00
792,52	7850,83
792,96	7717,83
793,41	9448,33
793,85	8236,00
794,29	7855,00
794,74	7962,33
795,18	7872,17
795,62	7584,33
796,06	7987,00
796,51	7792,00
796,95	7879,33
797,39	7680,33
797,84	7488,00
798,28	7849,17
798,72	8250,50
799,16	7913,33
799,61	7548,67
800,05	8478,67
800,49	8015,67
800,94	7597,83
801,38	8012,83
801,82	7899,83
802,26	7582,17
802,71	8228,50
803,15	8536,83
803,59	8095,50
804,03	7951,00
804,48	7810,67
804,92	7729,33
805,36	8527,17
805,80	8666,50
806,25	8529,00
806,69	8162,50
807,13	8655,67
807,57	7810,17
808,01	7866,83
808,46	7580,33
808,90	8072,50
809,34	7882,50
809,78	7693,83
810,23	7562,50
810,67	7970,50
811,11	8355,17
811,55	9199,67
811,99	7714,50
812,44	7662,33
812,88	8108,00
813,32	8561,33
813,76	8208,17
814,20	7914,00
814,64	8184,17
815,09	8072,17
815,53	7999,67
815,97	7728,67
816,41	7589,33
816,85	7720,83
817,29	8173,17
817,74	7845,83
818,18	8260,83
818,62	7682,17
819,06	8126,83
819,50	8276,50
819,94	7767,83
820,39	8048,00
820,83	7713,17
821,27	7882,50
821,71	7625,17
822,15	8406,17
822,59	7607,50
823,03	7914,00
823,47	7921,33
823,92	7556,33
824,36	7939,17
824,80	7842,67
825,24	7987,83
825,68	8081,17
826,12	7572,00
826,56	7728,67
827,00	7303,83
827,44	7876,00
827,88	8110,50
828,33	8311,83
828,77	7670,00
829,21	8185,33
829,65	8027,50
830,09	7652,67
830,53	8462,00
830,97	7728,50
831,41	8792,00
831,85	8232,83
832,29	8083,50
832,73	7508,83
833,17	7848,33
833,61	7804,83
834,05	8429,17
834,49	8115,83
834,93	7832,67
835,37	7710,67
835,82	8279,00
836,26	7823,17
836,70	7973,67
837,14	7814,50
837,58	8209,83
838,02	7654,00
838,46	7695,67
838,90	7944,50
839,34	7862,83
839,78	8441,17
840,22	8730,17
840,66	7942,00
841,10	8338,67
841,54	7350,33
841,98	7657,67
842,42	7472,67
842,86	7738,67
843,30	8150,83
843,74	7903,50
844,18	8147,67
844,62	7899,83
845,06	7601,67
845,50	8117,50
845,94	7805,33
846,37	8114,33
846,81	7655,67
847,25	7658,83
847,69	7859,00
848,13	7623,00
848,57	7756,83
849,01	7708,33
849,45	8097,33
849,89	8332,00
850,33	8071,00
850,77	7782,67
851,21	8190,50
851,65	7622,50
852,09	8003,17
852,53	8242,17
852,97	7736,50
853,40	7724,33
853,84	8104,33
854,28	7488,33
854,72	8175,00
855,16	7464,50
855,60	7645,50
856,04	8269,50
856,48	8426,83
856,92	7831,17
857,36	8049,67
857,79	7896,50
858,23	7520,83
858,67	8338,67
859,11	7348,83
859,55	7600,83
859,99	7738,00
860,43	7838,50
860,87	7979,00
861,30	8075,17
861,74	7731,17
862,18	7867,83
862,62	8009,17
863,06	7659,83
863,50	7729,50
863,94	8132,17
864,37	7624,00
864,81	7861,17
865,25	7824,50
865,69	7455,00
866,13	7833,00
866,57	7383,67
867,00	8105,50
867,44	7583,17
867,88	7960,67
868,32	7803,33
868,76	7708,00
869,19	7985,00
869,63	7886,33
870,07	8408,17
870,51	8820,00
870,95	7484,50
871,38	7793,17
871,82	7861,17
872,26	7599,00
872,70	7929,00
873,14	8044,33
873,57	7793,33
874,01	8243,33
874,45	8141,17
874,89	7740,17
875,32	7554,50
875,76	8279,17
876,20	7334,67
876,64	8006,83
877,07	7823,33
877,51	7830,33
877,95	7859,17
878,39	7787,00
878,82	8007,33
879,26	7771,50
879,70	8456,50
880,14	7606,50
880,57	7510,83
881,01	7706,33
881,45	7855,00
881,89	8086,50
882,32	7787,33
882,76	7840,50
883,20	7730,00
883,63	7787,83
884,07	7529,67
884,51	8099,67
884,94	7882,00
885,38	8016,00
885,82	8158,00
886,26	7722,67
886,69	7646,83
887,13	8521,83
887,57	7552,83
888,00	7598,33
888,44	7837,33
888,88	7681,00
889,31	8983,17
889,75	7429,67
890,19	8133,83
890,62	7642,00
891,06	8052,17
891,50	8040,67
891,93	7431,50
892,37	7637,33
892,81	7757,67
893,24	7504,17
893,68	7733,33
894,11	7946,33
894,55	7764,33
894,99	8085,50
895,42	7781,33
895,86	7589,83
896,30	7876,50
896,73	7971,83
897,17	7601,67
897,60	7503,17
898,04	7613,33
898,48	7942,17
898,91	8258,50
899,35	7620,33
899,78	7625,33
900,22	7641,17
900,66	8140,50
901,09	8022,83
901,53	7729,17
901,96	8537,67
902,40	8617,33
902,84	7557,17
903,27	7742,17
903,71	8521,00
904,14	7609,17
904,58	7999,17
905,01	7629,50
905,45	7762,50
905,88	7537,00
906,32	8281,00
906,76	7895,50
907,19	8200,33
907,63	7979,67
908,06	7796,67
908,50	8077,33
908,93	8412,33
909,37	7733,00
909,80	7474,50
910,24	7941,83
910,67	7993,67
911,11	7755,50
911,54	7627,50
911,98	7729,17
912,41	7889,67
912,85	7737,00
913,28	7995,33
913,72	7994,33
914,15	7764,33
914,59	7481,17
915,02	7513,83
915,46	7688,83
915,89	7624,67
916,33	8150,50
916,76	7636,83
917,20	8211,17
917,63	7681,33
918,07	8178,33
918,50	7641,33
918,94	7781,00
919,37	7752,50
919,81	8029,67
920,24	8130,17
920,67	7857,83
921,11	8453,83
921,54	7988,67
921,98	7747,00
922,41	7526,33
922,85	7492,83
923,28	7895,33
923,72	8410,33
924,15	8081,00
924,58	7394,83
925,02	8051,50
925,45	7591,00
925,89	8160,67
926,32	8701,50
926,75	7775,33
927,19	8055,00
927,62	7461,83
928,06	8693,67
928,49	7848,17
928,92	7504,67
929,36	8195,17
929,79	7725,33
930,23	7964,67
930,66	8136,67
931,09	7676,00
931,53	7992,33
931,96	7366,50
932,39	8481,83
932,83	8215,83
933,26	8922,33
933,70	7814,00
934,13	8244,33
934,56	8162,00
935,00	8088,67
935,43	7954,00
935,86	7464,17
936,30	7788,33
936,73	7627,17
937,16	7939,83
937,60	7573,17
938,03	8046,33
938,46	7688,00
938,90	7730,33
939,33	8067,50
939,76	7554,67
940,19	7890,00
940,63	8243,50
941,06	8630,50
941,49	7697,50
941,93	8243,67
942,36	7617,00
942,79	7717,67
943,23	8064,83
943,66	7471,83
944,09	7466,17
944,52	8033,83
944,96	8037,50
945,39	8061,00
945,82	7859,00
946,26	7939,67
946,69	7934,00
947,12	8299,17
947,55	7898,17
947,99	7860,50
948,42	8040,17
948,85	7473,67
949,28	7464,17
949,72	7506,83
950,15	8853,00
950,58	8297,00
951,01	7750,00
951,45	7692,00
951,88	8029,17
952,31	7502,17
952,74	8115,17
953,17	7702,33
953,61	8576,50
954,04	7461,67
954,47	7599,50
954,90	7729,83
955,33	7673,00
955,77	7754,17
956,20	8016,17
956,63	7586,67
957,06	8030,17
957,49	8906,83
957,93	7483,67
958,36	8005,17
958,79	7912,00
959,22	7714,33
959,65	7657,83
960,08	7663,50
960,52	7278,17
960,95	7752,00
961,38	8033,33
961,81	7997,33
962,24	8145,17
962,67	8117,67
963,11	7650,00
963,54	7856,17
963,97	7679,00
964,40	7904,67
964,83	7803,33
965,26	7614,17
965,69	8122,17
966,13	7682,50
966,56	7815,83
966,99	8042,33
967,42	7651,00
967,85	7663,50
968,28	8266,67
968,71	9391,00
969,14	8141,00
969,57	7813,50
970,01	8001,83
970,44	7587,67
970,87	7679,83
971,30	8030,83
971,73	7671,67
972,16	7854,17
972,59	7498,00
973,02	7608,00
973,45	7735,17
973,88	8019,00
974,31	7750,17
974,74	8078,00
975,17	7935,17
975,61	7635,00
976,04	7682,83
976,47	7640,83
976,90	7873,67
977,33	7532,83
977,76	8086,17
978,19	7873,17
978,62	7759,33
979,05	7776,83
979,48	7726,67
979,91	8171,67
980,34	8058,83
980,77	7657,33
981,20	7946,50
981,63	8196,00
982,06	7790,67
982,49	7832,33
982,92	7689,00
983,35	7712,50
983,78	7617,83
984,21	8167,83
984,64	8085,67
985,07	7478,50
985,50	7287,67
985,93	7819,67
986,36	8096,17
986,79	7781,17
987,22	7592,17
987,65	7987,50
988,08	7831,50
988,51	7885,00
988,94	7790,33
989,37	7891,33
989,80	7813,50
990,23	7737,50
990,66	7946,50
991,09	7829,00
991,51	7913,17
991,94	8500,17
992,37	7700,17
992,80	7571,33
993,23	7796,17
993,66	7573,83
994,09	7688,83
994,52	8002,00
994,95	8081,33
995,38	7866,17
995,81	7886,83
996,24	7391,83
996,67	7501,83
997,09	7300,00
997,52	8225,17
997,95	8101,83
998,38	7648,50
998,81	7918,50
999,24	7533,50
999,67	8372,33
1000,10	7840,17
1000,53	7861,83
1000,95	8250,50
1001,38	7572,00
1001,81	7916,67
1002,24	8069,00
1002,67	7811,17
1003,10	7933,33
1003,53	7805,67
1003,95	8061,83
1004,38	7546,17
1004,81	7950,00
1005,24	7867,33
1005,67	8382,67
1006,10	7709,17
1006,52	7468,33
1006,95	7983,67
1007,38	7837,00
1007,81	7614,83
1008,24	7447,33
1008,67	7708,83
1009,09	7662,83
1009,52	9208,00
1009,95	8181,17
1010,38	8125,33
1010,81	7958,83
1011,23	8059,33
1011,66	8190,50
1012,09	7804,50
1012,52	8069,67
1012,95	7865,17
1013,37	7963,83
1013,80	8018,83
1014,23	7533,67
1014,66	8306,67
1015,08	7402,17
1015,51	8122,17
1015,94	7635,83
1016,37	7876,83
1016,80	7528,33
1017,22	8000,00
1017,65	7748,67
1018,08	16502,67
1018,51	7638,83
1018,93	7380,83
1019,36	8910,83
1019,79	8292,33
1020,21	8087,50
1020,64	7724,33
1021,07	7795,33
1021,50	7938,67
1021,92	7953,33
1022,35	8045,33
1022,78	7806,00
1023,21	9248,67
1023,63	8235,33
1024,06	8236,83
1024,49	8118,17
1024,91	7894,17
1025,34	8016,67
1025,77	8145,50
1026,19	7641,50
1026,62	7559,00
1027,05	8762,00
1027,47	8074,00
1027,90	8035,33
1028,33	7848,17
1028,75	7911,33
1029,18	7653,67
1029,61	8724,67
1030,03	7923,50
1030,46	7856,00
1030,89	7978,17
1031,31	8386,50
1031,74	7456,67
1032,17	7891,83
1032,59	8102,17
1033,02	7721,33
1033,45	8226,67
1033,87	7598,50
1034,30	7618,17
1034,73	8040,17
1035,15	8193,50
1035,58	7714,50
1036,00	8464,67
1036,43	7640,67
1036,86	7756,17
1037,28	7958,67
1037,71	7448,83
1038,13	8173,17
1038,56	8201,50
1038,99	8123,33
1039,41	8240,33
1039,84	8463,50
1040,26	7775,67
1040,69	7812,67
1041,11	7961,67
1041,54	7780,67
1041,97	8361,17
1042,39	8323,33
1042,82	8077,00
1043,24	8228,33
1043,67	7853,50
1044,09	8194,67
1044,52	7629,50
1044,95	7799,33
1045,37	7743,17
1045,80	7600,00
1046,22	7974,00
1046,65	8062,83
1047,07	7640,33
1047,50	8044,67
1047,92	8180,17
1048,35	7574,00
1048,77	8256,50
1049,20	8091,50
1049,62	8177,33
1050,05	7791,00
1050,47	7823,67
1050,90	8044,67
1051,32	8229,33
1051,75	8361,33
1052,17	8263,33
1052,60	7932,83
1053,02	8052,33
1053,45	7312,50
1053,87	7911,00
1054,30	7379,50
1054,72	7814,83
1055,15	7659,33
1055,57	8012,17
1056,00	8070,33
1056,42	8594,83
1056,85	8290,00
1057,27	8293,50
1057,70	7886,83
1058,12	9323,67
1058,54	7660,50
1058,97	8047,00
1059,39	8150,83
1059,82	7776,83
1060,24	7796,67
1060,67	7728,67
1061,09	8219,50
1061,51	7979,33
1061,94	7765,33
1062,36	8181,50
1062,79	8405,67
1063,21	7959,83
1063,64	7854,33
1064,06	7714,50
1064,48	8156,83
1064,91	8273,33
1065,33	7778,83
1065,76	7648,33
1066,18	7493,17
1066,60	8235,33
1067,03	7930,17
1067,45	7851,00
1067,87	7995,67
1068,30	7786,50
1068,72	8599,00
1069,15	7879,67
1069,57	7776,67
1069,99	7499,00
1070,42	8205,67
1070,84	8251,50
1071,26	8230,33
1071,69	7784,67
1072,11	8121,17
1072,53	7767,50
1072,96	7594,33
1073,38	7514,33
1073,80	8177,00
1074,23	7726,50
1074,65	7529,33
1075,07	7709,67
1075,50	7773,83
1075,92	7926,83
1076,34	7681,50
1076,77	7638,83
1077,19	7835,00
1077,61	8183,33
1078,04	7784,17
1078,46	8129,83
1078,88	8420,50
1079,30	7335,83
1079,73	7944,17
1080,15	7733,00
1080,57	7789,50
1081,00	8077,50
1081,42	7831,83
1081,84	7754,50
1082,26	7977,50
1082,69	7882,00
1083,11	7836,67
1083,53	7878,50
1083,95	7880,33
1084,38	8192,00
1084,80	7905,00
1085,22	7809,17
1085,64	8300,67
1086,07	7632,17
1086,49	7771,67
1086,91	8012,50
1087,33	7416,00
1087,76	8121,67
1088,18	17636,00
1088,60	7965,00
1089,02	7631,67
1089,45	7718,67
1089,87	7807,83
1090,29	8242,00
1090,71	7825,83
1091,13	7532,17
1091,56	7758,33
1091,98	7762,17
1092,40	7670,00
1092,82	7840,50
1093,24	7760,17
1093,66	7819,67
1094,09	7749,17
1094,51	7867,00
1094,93	7772,33
1095,35	7859,17
1095,77	7703,50
1096,19	7893,50
1096,62	8007,17
1097,04	7519,17
1097,46	7853,50
1097,88	7738,00
1098,30	8051,33
1098,72	8041,17
1099,15	8008,50
1099,57	7789,50
1099,99	7773,17
1100,41	7637,33
1100,83	7739,33
1101,25	7721,17
1101,67	7881,17
1102,09	7536,83
1102,52	7621,83
1102,94	7766,67
1103,36	7804,00
1103,78	7916,83
1104,20	7697,50
1104,62	8432,83
1105,04	7186,00
1105,46	7903,17
1105,88	7786,67
1106,30	7625,50
1106,73	7797,33
1107,15	7203,33
1107,57	7390,50
1107,99	8140,33
1108,41	7420,50
1108,83	7958,83
1109,25	7879,50
1109,67	7886,83
1110,09	7335,00
1110,51	7640,00
1110,93	7351,33
1111,35	7602,50
1111,77	7329,67
1112,19	7412,50
1112,61	7278,50
1113,03	7580,50
1113,45	7401,50
1113,87	7381,83
1114,29	7685,67
1114,71	7819,50
1115,13	7514,00
1115,55	7638,00
1115,98	7492,17
1116,40	7798,17
1116,82	7702,67
1117,24	7542,67
1117,66	7353,33
1118,08	2081,50
1118,50	2204,17
1118,91	2196,17
1119,33	2198,17
>>>>>End Processed Spectral Data<<<<<
