SpectraSuite Data File
++++++++++++++++++++++++++++++++++++
Date: Wed Feb 13 09:53:48 EET 2013
User: OO Maya
Dark Spectrum Present: No
Reference Spectrum Present: No
Number of Sampled Component Spectra: 1
Spectrometers: MAYP11278
Integration Time (usec): 600000 (MAYP11278)
Spectra Averaged: 15 (MAYP11278)
Boxcar Smoothing: 0 (MAYP11278)
Correct for Electrical Dark: No (MAYP11278)
Strobe/Lamp Enabled: No (MAYP11278)
Correct for Detector Non-linearity: No (MAYP11278)
Correct for Stray Light: No (MAYP11278)
Number of Pixels in Processed Spectrum: 2068
>>>>>Begin Processed Spectral Data<<<<<
188,05	2286,80
188,53	2212,67
189,01	2181,33
189,49	2182,40
189,96	2770,60
190,44	2857,00
190,92	2882,73
191,40	2920,00
191,88	2976,47
192,36	2934,93
192,83	2916,80
193,31	2902,20
193,79	2941,60
194,27	2927,73
194,75	2952,13
195,23	2926,00
195,70	2971,33
196,18	2915,13
196,66	2934,47
197,14	3046,87
197,62	2939,60
198,09	2901,67
198,57	2921,80
199,05	2917,00
199,53	2951,00
200,01	2970,00
200,48	2926,67
200,96	2929,93
201,44	2972,80
201,92	2964,67
202,39	2960,20
202,87	2892,00
203,35	2953,13
203,83	2902,07
204,31	2968,40
204,78	2988,47
205,26	2923,73
205,74	2911,73
206,22	2996,93
206,69	2930,40
207,17	2956,53
207,65	3047,80
208,13	2942,73
208,60	2973,47
209,08	2936,67
209,56	2977,53
210,04	2972,00
210,51	2939,20
210,99	2936,00
211,47	2956,53
211,94	2930,53
212,42	2909,73
212,90	3017,53
213,38	2965,00
213,85	2914,53
214,33	3035,87
214,81	2955,00
215,29	3008,13
215,76	2953,73
216,24	2977,13
216,72	2979,40
217,19	2969,73
217,67	2915,33
218,15	2924,07
218,62	2987,53
219,10	2887,40
219,58	2906,07
220,05	2916,00
220,53	2945,47
221,01	2997,60
221,49	2930,33
221,96	2989,47
222,44	2924,47
222,92	2995,13
223,39	2936,13
223,87	2981,87
224,35	2954,07
224,82	2928,47
225,30	2911,33
225,78	2942,53
226,25	2919,80
226,73	2949,13
227,21	2995,27
227,68	2945,53
228,16	2970,53
228,63	2984,27
229,11	2985,33
229,59	2956,53
230,06	2950,27
230,54	2935,20
231,02	2978,00
231,49	2994,47
231,97	2959,80
232,45	2953,33
232,92	2915,00
233,40	2952,40
233,87	2966,00
234,35	3113,60
234,83	2965,20
235,30	2935,13
235,78	2933,93
236,25	2916,20
236,73	2984,87
237,21	3054,40
237,68	2936,67
238,16	2960,07
238,63	2969,33
239,11	2962,33
239,59	2945,87
240,06	2902,87
240,54	2980,67
241,01	3007,60
241,49	2965,07
241,96	2956,27
242,44	2998,47
242,92	3005,80
243,39	2922,93
243,87	2928,73
244,34	2991,40
244,82	3020,47
245,29	2957,27
245,77	3005,40
246,24	3006,47
246,72	2942,33
247,20	2963,20
247,67	2962,93
248,15	2969,20
248,62	2978,00
249,10	2898,87
249,57	2969,93
250,05	2994,13
250,52	2981,07
251,00	3026,67
251,47	2955,40
251,95	3051,53
252,42	3033,07
252,90	2946,93
253,37	3021,80
253,85	2976,40
254,32	2960,33
254,80	2979,87
255,27	2983,00
255,75	3015,00
256,22	2939,53
256,70	2977,73
257,17	2995,80
257,65	3011,07
258,12	3103,20
258,60	2977,27
259,07	2956,20
259,55	2976,07
260,02	3006,67
260,50	3047,13
260,97	2968,20
261,45	2957,40
261,92	3033,00
262,40	2943,80
262,87	2998,33
263,35	2985,33
263,82	2932,87
264,30	3008,27
264,77	3026,33
265,25	2968,87
265,72	2976,13
266,19	2990,13
266,67	3009,93
267,14	2969,13
267,62	2978,13
268,09	2996,00
268,57	3011,67
269,04	2933,20
269,51	2963,13
269,99	2968,73
270,46	3017,07
270,94	3033,20
271,41	2979,53
271,89	2988,07
272,36	2932,40
272,83	2949,33
273,31	2923,60
273,78	3003,73
274,26	3160,47
274,73	3022,67
275,20	3032,93
275,68	2985,27
276,15	3002,27
276,63	3024,47
277,10	3030,27
277,57	2953,80
278,05	2987,53
278,52	2948,60
279,00	3192,33
279,47	2978,60
279,94	2977,93
280,42	3183,67
280,89	3047,13
281,36	3151,53
281,84	2994,20
282,31	3069,60
282,78	2997,20
283,26	3003,20
283,73	3025,93
284,21	2976,47
284,68	2971,27
285,15	3036,40
285,63	3000,60
286,10	3015,53
286,57	3023,87
287,05	2962,13
287,52	3034,93
287,99	3085,93
288,47	3015,07
288,94	3064,00
289,41	2963,00
289,89	3088,73
290,36	3004,80
290,83	3046,60
291,30	3005,67
291,78	3050,13
292,25	3116,60
292,72	3005,67
293,20	3079,47
293,67	3009,20
294,14	3069,47
294,62	3068,80
295,09	3029,40
295,56	3076,07
296,03	3068,60
296,51	3148,13
296,98	3141,73
297,45	3091,40
297,93	3080,53
298,40	3072,73
298,87	3039,47
299,34	3119,73
299,82	3052,53
300,29	3081,20
300,76	3044,47
301,23	3108,13
301,71	3120,53
302,18	3110,33
302,65	3053,67
303,12	3135,80
303,60	3144,13
304,07	3071,67
304,54	3083,33
305,01	3070,40
305,49	3108,33
305,96	3125,67
306,43	3105,80
306,90	3127,33
307,38	3089,60
307,85	3078,00
308,32	3112,67
308,79	3090,40
309,27	3160,87
309,74	3161,60
310,21	3147,73
310,68	3154,13
311,15	3157,47
311,63	3124,07
312,10	3188,07
312,57	3153,93
313,04	3233,40
313,51	3118,20
313,99	3134,33
314,46	3157,07
314,93	3125,07
315,40	3125,07
315,87	3187,47
316,34	3187,40
316,82	3176,33
317,29	3205,00
317,76	3176,73
318,23	3307,20
318,70	3189,47
319,17	3194,60
319,65	3156,80
320,12	3233,27
320,59	3288,93
321,06	3250,93
321,53	3211,53
322,00	3159,53
322,48	3177,13
322,95	3292,07
323,42	3197,33
323,89	3305,60
324,36	3149,47
324,83	3238,07
325,30	3229,40
325,78	3220,33
326,25	3251,87
326,72	3257,20
327,19	3313,80
327,66	3321,00
328,13	3323,47
328,60	3303,93
329,07	3291,80
329,54	3281,40
330,02	3279,80
330,49	3254,87
330,96	3315,47
331,43	3277,20
331,90	3353,93
332,37	3258,27
332,84	3402,53
333,31	3373,47
333,78	3378,00
334,25	3440,60
334,72	3390,73
335,20	3438,13
335,67	3591,47
336,14	3390,47
336,61	3430,27
337,08	3402,67
337,55	3414,13
338,02	3394,27
338,49	3396,07
338,96	3484,67
339,43	3436,27
339,90	3356,80
340,37	3374,47
340,84	3370,60
341,31	3447,67
341,78	3466,20
342,25	3410,07
342,72	3445,47
343,19	3467,20
343,67	3443,47
344,14	3412,33
344,61	3422,20
345,08	3410,13
345,55	3429,33
346,02	3460,07
346,49	3411,47
346,96	3403,13
347,43	3502,67
347,90	3417,27
348,37	3487,80
348,84	3454,53
349,31	3401,93
349,78	3454,33
350,25	3500,40
350,72	3458,27
351,19	3446,80
351,66	3485,80
352,13	3558,47
352,60	3501,73
353,07	3485,33
353,54	3507,07
354,01	3521,27
354,48	3522,07
354,94	3540,53
355,41	3529,73
355,88	3599,73
356,35	3504,27
356,82	3609,53
357,29	3514,87
357,76	3658,87
358,23	3607,00
358,70	3525,53
359,17	3551,07
359,64	3561,73
360,11	3593,93
360,58	3637,87
361,05	3687,33
361,52	3610,87
361,99	3630,60
362,46	3631,13
362,93	3635,53
363,39	3653,80
363,86	3769,80
364,33	3685,87
364,80	3670,87
365,27	3721,73
365,74	3685,67
366,21	3682,67
366,68	3735,80
367,15	3746,20
367,62	3763,07
368,09	3717,80
368,55	3749,47
369,02	3833,27
369,49	3746,73
369,96	3836,93
370,43	3825,20
370,90	3815,40
371,37	3820,27
371,84	3882,13
372,31	3833,27
372,77	3825,00
373,24	3886,20
373,71	3924,27
374,18	3885,93
374,65	3910,07
375,12	3983,20
375,59	3917,93
376,05	4061,47
376,52	4015,93
376,99	3997,60
377,46	4000,53
377,93	4074,20
378,40	4078,53
378,86	4099,80
379,33	4114,47
379,80	4140,80
380,27	4181,07
380,74	4228,53
381,21	4187,80
381,67	4268,27
382,14	4290,33
382,61	4195,87
383,08	4289,27
383,55	4275,33
384,02	4371,33
384,48	4346,73
384,95	4612,27
385,42	4396,40
385,89	4391,07
386,36	4418,40
386,82	4520,00
387,29	4443,13
387,76	4422,00
388,23	4536,93
388,69	4561,27
389,16	4621,80
389,63	4540,73
390,10	4617,93
390,57	4628,27
391,03	4677,47
391,50	4689,80
391,97	4712,73
392,44	4732,73
392,90	4735,13
393,37	4769,87
393,84	4926,80
394,31	4839,13
394,77	4913,67
395,24	4863,33
395,71	4946,33
396,18	5172,73
396,64	4927,60
397,11	5030,60
397,58	5056,60
398,05	5022,60
398,51	5091,07
398,98	5095,80
399,45	5087,67
399,92	5219,13
400,38	5148,20
400,85	5221,67
401,32	5253,60
401,78	5302,80
402,25	5325,53
402,72	5359,73
403,18	5341,00
403,65	5480,13
404,12	5436,47
404,59	5517,07
405,05	5580,33
405,52	5600,47
405,99	5544,67
406,45	5640,40
406,92	5659,40
407,39	5749,40
407,85	5690,00
408,32	5712,67
408,79	5784,80
409,25	5736,20
409,72	5864,40
410,19	5800,47
410,65	5931,80
411,12	5895,93
411,59	6010,20
412,05	6082,20
412,52	5958,07
412,99	6075,60
413,45	6054,67
413,92	6143,87
414,39	6185,33
414,85	6267,67
415,32	6204,87
415,78	6349,73
416,25	6312,07
416,72	6328,07
417,18	6440,73
417,65	6400,60
418,12	6430,73
418,58	6477,07
419,05	6509,73
419,51	6573,07
419,98	6519,40
420,45	6645,93
420,91	6619,60
421,38	6683,73
421,84	6707,67
422,31	6782,67
422,78	6784,60
423,24	6848,53
423,71	6896,93
424,17	6954,40
424,64	6938,20
425,11	7055,60
425,57	7051,87
426,04	7134,27
426,50	7109,13
426,97	7234,13
427,43	7258,27
427,90	7278,87
428,37	7241,53
428,83	7364,00
429,30	7382,87
429,76	7430,47
430,23	7496,87
430,69	7648,80
431,16	7505,47
431,62	7571,73
432,09	7716,40
432,55	7720,87
433,02	7726,53
433,48	7759,60
433,95	7831,60
434,42	7869,33
434,88	7949,60
435,35	7900,47
435,81	8038,40
436,28	8061,33
436,74	8036,93
437,21	8204,40
437,67	8207,60
438,14	8229,13
438,60	8247,73
439,07	8326,80
439,53	8582,80
440,00	8446,73
440,46	8519,27
440,93	8576,00
441,39	8544,27
441,86	8585,60
442,32	8756,20
442,79	8666,07
443,25	8762,07
443,72	8786,47
444,18	8795,47
444,64	8977,87
445,11	8985,53
445,57	8991,47
446,04	9035,40
446,50	9109,47
446,97	9126,40
447,43	9199,00
447,90	9217,47
448,36	9265,53
448,83	9359,53
449,29	9406,33
449,75	9456,20
450,22	9487,93
450,68	9531,67
451,15	9594,00
451,61	9653,47
452,08	9774,07
452,54	9765,20
453,00	9888,40
453,47	9889,60
453,93	9940,33
454,40	10020,40
454,86	10090,00
455,32	10138,53
455,79	10201,80
456,25	10288,13
456,72	10309,53
457,18	10411,40
457,64	10423,93
458,11	10461,93
458,57	10475,93
459,04	10595,80
459,50	10637,87
459,96	10687,40
460,43	10744,67
460,89	10769,07
461,36	10935,80
461,82	10995,47
462,28	10951,40
462,75	10996,47
463,21	11153,87
463,67	11173,60
464,14	11224,80
464,60	11272,20
465,06	11287,27
465,53	11381,00
465,99	11471,47
466,45	11510,13
466,92	11562,20
467,38	11644,53
467,84	11662,07
468,31	11744,13
468,77	11831,27
469,23	11877,27
469,70	11902,27
470,16	11998,53
470,62	12046,80
471,09	12095,00
471,55	12145,40
472,01	12220,40
472,48	12297,40
472,94	12368,80
473,40	12476,60
473,87	12487,60
474,33	12520,20
474,79	12581,67
475,25	12642,07
475,72	12735,73
476,18	12797,20
476,64	12875,73
477,11	12915,20
477,57	12964,60
478,03	13097,27
478,49	13131,40
478,96	13243,07
479,42	13186,00
479,88	13360,07
480,35	13385,00
480,81	13443,93
481,27	13504,67
481,73	13559,13
482,20	13672,07
482,66	13681,53
483,12	13755,53
483,58	13809,00
484,05	13902,13
484,51	14043,20
484,97	14041,13
485,43	14089,73
485,89	14068,60
486,36	14237,93
486,82	14259,13
487,28	14393,80
487,74	14398,47
488,21	14446,67
488,67	14545,20
489,13	14678,07
489,59	14708,67
490,05	14840,00
490,52	14824,00
490,98	14973,80
491,44	14980,53
491,90	15053,73
492,36	15096,27
492,83	15265,60
493,29	15297,67
493,75	15356,60
494,21	15415,47
494,67	15465,87
495,14	15532,00
495,60	15585,60
496,06	15716,60
496,52	15764,67
496,98	15859,53
497,44	16001,53
497,91	16018,80
498,37	16024,93
498,83	16143,93
499,29	16135,87
499,75	16371,73
500,21	16347,53
500,67	16385,67
501,14	16490,33
501,60	16577,80
502,06	16710,47
502,52	16734,67
502,98	16786,60
503,44	16878,73
503,90	16940,53
504,37	17038,87
504,83	17130,67
505,29	17169,87
505,75	17211,00
506,21	17290,27
506,67	17426,07
507,13	17410,47
507,59	17573,07
508,05	17602,33
508,51	17655,87
508,98	17679,33
509,44	17788,73
509,90	17840,60
510,36	17951,60
510,82	18031,27
511,28	18145,60
511,74	18277,07
512,20	18232,53
512,66	18272,73
513,12	18409,27
513,58	18542,13
514,04	18520,60
514,51	18673,93
514,97	18808,47
515,43	18776,27
515,89	18900,80
516,35	18994,87
516,81	19123,53
517,27	19255,13
517,73	19248,87
518,19	19298,07
518,65	19567,80
519,11	19479,20
519,57	19576,73
520,03	19669,53
520,49	19760,53
520,95	19892,53
521,41	20030,40
521,87	20096,20
522,33	20200,60
522,79	20209,53
523,25	20437,47
523,71	20471,67
524,17	20516,33
524,63	20719,13
525,09	20725,80
525,55	20821,53
526,01	20946,33
526,47	20929,40
526,93	21082,33
527,39	21160,33
527,85	21241,80
528,31	21360,13
528,77	21439,67
529,23	21467,20
529,69	21520,27
530,15	21672,40
530,61	21741,87
531,07	21751,87
531,53	21947,13
531,99	21968,67
532,45	22085,47
532,91	22123,53
533,37	22258,60
533,83	22296,87
534,29	22369,00
534,75	22426,73
535,21	22532,13
535,67	22667,00
536,12	22731,40
536,58	22891,27
537,04	22890,67
537,50	23046,73
537,96	23106,60
538,42	23170,93
538,88	23343,53
539,34	23388,47
539,80	23666,33
540,26	23494,60
540,72	23668,07
541,18	23715,20
541,63	23720,67
542,09	23895,53
542,55	23949,13
543,01	23989,67
543,47	24205,20
543,93	24140,80
544,39	24289,07
544,85	24349,87
545,31	24375,33
545,76	24481,67
546,22	24607,13
546,68	24621,07
547,14	24737,53
547,60	24788,53
548,06	24917,53
548,52	24935,47
548,98	25058,67
549,43	25107,07
549,89	25385,07
550,35	25309,67
550,81	25380,33
551,27	25535,47
551,73	25596,67
552,19	25752,93
552,64	25809,27
553,10	25831,40
553,56	25923,67
554,02	25969,80
554,48	26004,67
554,93	26166,07
555,39	26253,27
555,85	26416,27
556,31	26515,87
556,77	26614,20
557,23	26606,53
557,68	26723,67
558,14	26913,13
558,60	26878,93
559,06	26942,67
559,52	27012,60
559,97	27163,93
560,43	27167,40
560,89	27322,33
561,35	27351,40
561,81	27466,07
562,26	27538,07
562,72	27644,73
563,18	27778,67
563,64	27896,53
564,09	27901,33
564,55	28009,20
565,01	28012,60
565,47	28158,47
565,92	28266,73
566,38	28350,13
566,84	28414,80
567,30	28457,80
567,75	28587,13
568,21	28756,13
568,67	28759,13
569,13	28877,80
569,58	28947,67
570,04	29027,53
570,50	29097,00
570,96	29268,80
571,41	29287,07
571,87	29352,40
572,33	29434,87
572,78	29542,27
573,24	29577,80
573,70	29664,93
574,16	29730,87
574,61	29936,73
575,07	29962,33
575,53	29961,33
575,98	30167,87
576,44	30099,73
576,90	30309,40
577,36	30342,47
577,81	30479,20
578,27	30534,73
578,73	30731,93
579,18	30735,20
579,64	30798,00
580,10	30884,73
580,55	31011,20
581,01	31057,60
581,47	31168,73
581,92	31242,60
582,38	31327,53
582,84	31367,13
583,29	31484,47
583,75	31570,40
584,21	31648,87
584,66	31764,40
585,12	31763,93
585,57	32009,53
586,03	31914,87
586,49	32062,27
586,94	32075,07
587,40	32200,40
587,86	32283,00
588,31	32333,87
588,77	32421,93
589,22	32494,60
589,68	32574,07
590,14	32693,67
590,59	32777,07
591,05	32851,73
591,51	32860,93
591,96	33055,13
592,42	33063,27
592,87	33113,13
593,33	33175,13
593,78	33315,20
594,24	33356,20
594,70	33417,20
595,15	33538,53
595,61	33566,13
596,06	33651,07
596,52	33836,60
596,98	33849,33
597,43	33928,13
597,89	33930,13
598,34	33899,47
598,80	34090,00
599,25	34252,93
599,71	34334,60
600,16	34454,13
600,62	34575,20
601,08	34684,47
601,53	34740,53
601,99	34724,27
602,44	34954,87
602,90	34878,87
603,35	34966,60
603,81	34984,33
604,26	35042,87
604,72	35187,67
605,17	35197,07
605,63	35292,27
606,08	35374,67
606,54	35349,40
606,99	35453,80
607,45	35481,87
607,90	35569,00
608,36	35701,07
608,81	35745,07
609,27	35956,73
609,72	35934,00
610,18	36011,53
610,63	36102,73
611,09	36262,00
611,54	36274,20
612,00	36494,27
612,45	36586,20
612,91	36646,00
613,36	36923,60
613,82	36851,07
614,27	36945,53
614,73	37024,20
615,18	37141,47
615,64	37308,40
616,09	37364,93
616,54	37434,13
617,00	37557,00
617,45	37656,27
617,91	37810,20
618,36	37805,40
618,82	37921,93
619,27	38070,07
619,72	38177,00
620,18	38249,33
620,63	38431,60
621,09	38596,47
621,54	38615,33
622,00	38739,60
622,45	38888,67
622,90	38935,40
623,36	38958,47
623,81	39066,87
624,27	39254,73
624,72	39228,67
625,17	39357,80
625,63	39443,40
626,08	39499,87
626,54	39666,60
626,99	39782,07
627,44	39777,67
627,90	39977,47
628,35	40008,87
628,81	40037,07
629,26	40146,07
629,71	40193,80
630,17	40264,33
630,62	40409,33
631,07	40436,00
631,53	40536,67
631,98	40582,13
632,43	40740,13
632,89	40656,00
633,34	40752,00
633,79	40837,93
634,25	40873,93
634,70	40897,00
635,15	40976,67
635,61	41035,73
636,06	41108,93
636,51	41185,67
636,97	41246,67
637,42	41343,13
637,87	41403,93
638,33	41425,53
638,78	41403,67
639,23	41506,87
639,69	41545,40
640,14	41644,20
640,59	41802,27
641,05	41882,07
641,50	41833,67
641,95	41932,73
642,40	41989,73
642,86	42019,40
643,31	42113,67
643,76	42217,27
644,22	42270,20
644,67	42245,60
645,12	42385,40
645,57	42406,00
646,03	42501,53
646,48	42546,53
646,93	42685,20
647,38	42784,80
647,84	42781,93
648,29	42772,67
648,74	42809,87
649,19	43008,07
649,65	43039,93
650,10	43244,53
650,55	43061,27
651,00	43064,60
651,46	43148,07
651,91	43191,73
652,36	43284,00
652,81	43391,00
653,27	43482,00
653,72	43530,47
654,17	43525,20
654,62	43548,13
655,07	43651,07
655,53	43635,53
655,98	43728,53
656,43	43776,20
656,88	43907,13
657,33	43974,53
657,79	44058,73
658,24	44092,13
658,69	44154,47
659,14	44046,40
659,59	44336,87
660,05	44148,80
660,50	44350,07
660,95	44400,53
661,40	44483,13
661,85	44423,27
662,30	44422,13
662,76	44370,67
663,21	44552,53
663,66	44572,60
664,11	44724,20
664,56	44819,07
665,01	44743,53
665,47	44826,53
665,92	44747,00
666,37	44842,00
666,82	44876,67
667,27	45065,80
667,72	45115,13
668,17	45119,80
668,62	45225,00
669,08	45225,47
669,53	45314,80
669,98	45236,67
670,43	45292,47
670,88	45515,33
671,33	45579,47
671,78	45719,00
672,23	45754,20
672,69	45711,00
673,14	45670,53
673,59	45772,53
674,04	45822,73
674,49	45799,07
674,94	45908,67
675,39	45890,47
675,84	46011,67
676,29	46156,47
676,74	46139,80
677,19	46078,87
677,64	46050,60
678,10	46186,73
678,55	46191,60
679,00	46290,93
679,45	46434,13
679,90	46517,33
680,35	46554,67
680,80	46550,07
681,25	46374,20
681,70	46297,13
682,15	46486,07
682,60	46587,27
683,05	46793,07
683,50	46918,13
683,95	46911,67
684,40	46883,40
684,85	46730,27
685,30	46743,60
685,75	46835,20
686,20	46869,20
686,65	46945,00
687,10	47043,00
687,55	47163,20
688,00	47174,93
688,45	47136,87
688,90	47175,00
689,35	47113,60
689,80	47103,87
690,25	47175,33
690,70	47199,60
691,15	47104,00
691,60	47178,00
692,05	47043,53
692,50	47147,13
692,95	47235,20
693,40	47393,93
693,85	47602,53
694,30	47755,40
694,75	47837,60
695,20	48118,73
695,65	47953,07
696,10	47879,00
696,55	47991,93
697,00	47778,80
697,45	47730,27
697,90	47796,13
698,35	47859,80
698,80	48054,87
699,24	48162,40
699,69	48244,93
700,14	48266,93
700,59	48388,20
701,04	48295,53
701,49	48318,67
701,94	47988,07
702,39	48123,93
702,84	48165,00
703,29	48340,53
703,74	48612,33
704,19	48586,53
704,63	48577,73
705,08	48599,40
705,53	48474,20
705,98	48331,73
706,43	48193,27
706,88	48396,27
707,33	48551,00
707,78	48740,47
708,22	48849,33
708,67	48855,93
709,12	48702,87
709,57	48565,00
710,02	48451,20
710,47	48448,27
710,92	48506,40
711,37	48745,33
711,81	48887,07
712,26	49029,33
712,71	48920,53
713,16	48877,87
713,61	48707,60
714,06	48615,07
714,50	48675,80
714,95	48689,13
715,40	48679,60
715,85	48859,67
716,30	48944,13
716,75	48976,60
717,19	48857,47
717,64	48602,13
718,09	48588,33
718,54	48421,53
718,99	48348,13
719,43	48309,27
719,88	48421,87
720,33	48512,20
720,78	48526,47
721,23	48515,73
721,67	48307,73
722,12	48208,93
722,57	48038,80
723,02	47852,80
723,47	47845,93
723,91	47946,47
724,36	47973,07
724,81	48185,00
725,26	48253,93
725,70	48285,53
726,15	48383,73
726,60	48377,67
727,05	48349,73
727,49	48057,93
727,94	48135,93
728,39	48220,33
728,84	48270,20
729,28	48517,80
729,73	48609,20
730,18	48863,60
730,63	49067,67
731,07	49220,00
731,52	49194,67
731,97	49088,40
732,41	49081,60
732,86	49032,67
733,31	49255,53
733,76	49410,73
734,20	49653,67
734,65	50006,40
735,10	50148,93
735,54	50262,93
735,99	50479,73
736,44	50349,20
736,89	50197,80
737,33	50186,13
737,78	50166,60
738,23	50240,00
738,67	50432,20
739,12	50628,20
739,57	50869,13
740,01	50993,13
740,46	50919,80
740,91	50875,60
741,35	50823,93
741,80	50742,53
742,25	50609,07
742,69	50516,87
743,14	50569,67
743,59	50631,80
744,03	50789,53
744,48	50968,27
744,92	51047,87
745,37	51082,80
745,82	51058,87
746,26	50997,40
746,71	50624,93
747,16	50446,33
747,60	50296,27
748,05	50422,00
748,49	50509,47
748,94	50652,00
749,39	50784,07
749,83	50952,40
750,28	50937,93
750,73	50817,73
751,17	50755,20
751,62	50530,33
752,06	50379,60
752,51	50248,67
752,95	50292,33
753,40	50183,27
753,85	50336,73
754,29	50499,93
754,74	50691,00
755,18	50691,13
755,63	50571,93
756,07	50388,13
756,52	50125,13
756,97	49847,40
757,41	49887,40
757,86	49869,67
758,30	49973,20
758,75	50125,27
759,19	50185,53
759,64	50225,40
760,08	50199,40
760,53	50030,53
760,98	49725,13
761,42	49567,80
761,87	49434,20
762,31	49392,67
762,76	49494,53
763,20	49793,93
763,65	50248,73
764,09	50398,93
764,54	50492,13
764,98	50564,40
765,43	50457,00
765,87	50117,60
766,32	49822,40
766,76	49678,33
767,21	49628,67
767,65	49745,33
768,10	50019,00
768,54	50423,53
768,99	50744,67
769,43	51173,00
769,88	51189,87
770,32	51230,00
770,77	51062,73
771,21	50902,40
771,65	50703,80
772,10	50567,80
772,54	50449,47
772,99	50287,20
773,43	50262,20
773,88	50289,27
774,32	50374,60
774,77	50611,20
775,21	50924,20
775,65	51115,87
776,10	51306,67
776,54	51255,80
776,99	51044,07
777,43	50809,53
777,88	50468,13
778,32	50279,33
778,76	50107,13
779,21	50096,87
779,65	50300,87
780,10	50531,53
780,54	50712,07
780,99	50955,60
781,43	50982,47
781,87	50934,60
782,32	50827,67
782,76	50511,53
783,20	50222,67
783,65	49763,93
784,09	49533,00
784,54	49331,40
784,98	49362,80
785,42	49658,67
785,87	49855,60
786,31	50104,47
786,75	50425,33
787,20	50529,60
787,64	50346,33
788,09	50000,47
788,53	49744,80
788,97	49407,60
789,42	49203,27
789,86	48895,60
790,30	48779,20
790,75	48781,73
791,19	49073,00
791,63	49663,87
792,08	49871,07
792,52	50048,80
792,96	50082,53
793,41	50117,60
793,85	49564,80
794,29	48936,13
794,74	48401,60
795,18	48078,40
795,62	47875,87
796,06	48063,60
796,51	48316,20
796,95	48738,87
797,39	49015,07
797,84	49227,80
798,28	49339,53
798,72	49268,87
799,16	48942,73
799,61	48416,47
800,05	48054,47
800,49	47590,13
800,94	47405,80
801,38	47427,33
801,82	47603,33
802,26	47884,80
802,71	48316,27
803,15	48836,87
803,59	49007,67
804,03	49030,93
804,48	48912,33
804,92	48525,20
805,36	47977,40
805,80	47360,13
806,25	46850,00
806,69	46581,93
807,13	46561,00
807,57	46683,20
808,01	46978,27
808,46	47353,60
808,90	47750,67
809,34	48083,73
809,78	48332,40
810,23	48358,47
810,67	48209,53
811,11	48024,87
811,55	47660,67
811,99	46965,60
812,44	46522,40
812,88	46226,40
813,32	46069,20
813,76	45951,53
814,20	46017,20
814,64	46376,67
815,09	46926,27
815,53	47463,20
815,97	47739,60
816,41	47914,07
816,85	47851,00
817,29	47670,47
817,74	47307,73
818,18	46852,40
818,62	46155,73
819,06	45738,93
819,50	45531,33
819,94	45378,27
820,39	45492,93
820,83	45749,07
821,27	46197,33
821,71	46622,73
822,15	47134,60
822,59	47383,20
823,03	47584,33
823,47	47509,07
823,92	47122,93
824,36	46756,07
824,80	46245,00
825,24	45803,80
825,68	45463,80
826,12	45224,13
826,56	45176,33
827,00	45385,40
827,44	45775,80
827,88	46290,93
828,33	46817,87
828,77	47009,07
829,21	47111,53
829,65	47148,47
830,09	46861,53
830,53	46545,87
830,97	45996,80
831,41	45486,93
831,85	45019,73
832,29	44887,60
832,73	44968,40
833,17	45447,27
833,61	46010,87
834,05	46497,47
834,49	46977,40
834,93	47341,60
835,37	47368,93
835,82	47048,33
836,26	46443,00
836,70	45795,07
837,14	45227,47
837,58	44831,27
838,02	44619,87
838,46	44559,00
838,90	44814,00
839,34	45188,07
839,78	45640,87
840,22	46358,00
840,66	46974,53
841,10	47511,93
841,54	47555,40
841,98	47390,60
842,42	46986,00
842,86	46400,40
843,30	45577,20
843,74	44833,07
844,18	44363,07
844,62	44017,53
845,06	44045,67
845,50	44425,47
845,94	44951,80
846,37	45561,27
846,81	46197,47
847,25	46892,93
847,69	47453,53
848,13	47764,60
848,57	47861,47
849,01	47665,33
849,45	47459,87
849,89	47028,47
850,33	46370,80
850,77	45664,27
851,21	45262,33
851,65	44755,40
852,09	44534,73
852,53	44395,80
852,97	44584,93
853,40	44944,93
853,84	45647,40
854,28	46437,13
854,72	47481,07
855,16	47863,80
855,60	48123,00
856,04	47877,80
856,48	47498,20
856,92	46680,87
857,36	45716,60
857,79	44731,07
858,23	44103,27
858,67	43863,93
859,11	43792,67
859,55	44309,93
859,99	45062,67
860,43	45920,53
860,87	46654,40
861,30	47492,67
861,74	47805,87
862,18	47951,80
862,62	47800,07
863,06	47481,73
863,50	46743,20
863,94	46113,87
864,37	45303,87
864,81	44761,67
865,25	44462,80
865,69	44478,53
866,13	44724,07
866,57	44996,67
867,00	45469,20
867,44	46079,60
867,88	46861,13
868,32	47421,27
868,76	47603,73
869,19	47715,73
869,63	47371,40
870,07	46527,27
870,51	45471,93
870,95	44257,87
871,38	43522,73
871,82	43100,13
872,26	42941,53
872,70	43255,73
873,14	43799,07
873,57	44477,67
874,01	45492,47
874,45	46199,73
874,89	46664,40
875,32	47141,20
875,76	47242,07
876,20	47060,93
876,64	46838,33
877,07	46114,07
877,51	45203,60
877,95	44467,20
878,39	43827,13
878,82	43277,60
879,26	42864,40
879,70	42822,87
880,14	42869,27
880,57	43157,53
881,01	43947,60
881,45	44956,27
881,89	46078,60
882,32	46914,40
882,76	47690,87
883,20	48063,20
883,63	47826,80
884,07	47328,87
884,51	46491,20
884,94	45594,67
885,38	44745,73
885,82	44050,60
886,26	43165,20
886,69	42702,93
887,13	42747,33
887,57	42704,60
888,00	43187,87
888,44	43840,67
888,88	44440,87
889,31	45459,00
889,75	45890,93
890,19	46525,47
890,62	47286,00
891,06	47895,53
891,50	48260,87
891,93	48153,87
892,37	47323,80
892,81	46296,27
893,24	45176,60
893,68	44285,07
894,11	43670,27
894,55	43193,47
894,99	43130,53
895,42	43102,40
895,86	43470,67
896,30	44240,27
896,73	45300,33
897,17	46260,07
897,60	47062,33
898,04	48076,87
898,48	48628,27
898,91	48920,80
899,35	48442,00
899,78	47777,67
900,22	46812,20
900,66	46000,00
901,09	44955,47
901,53	43943,47
901,96	43195,07
902,40	42835,07
902,84	42583,67
903,27	42596,20
903,71	43132,20
904,14	43491,87
904,58	43874,80
905,01	44325,47
905,45	44961,53
905,88	45643,33
906,32	46112,27
906,76	46567,93
907,19	47073,87
907,63	47288,60
908,06	47050,40
908,50	46628,87
908,93	45729,47
909,37	44801,93
909,80	43795,73
910,24	42867,73
910,67	42388,13
911,11	42201,40
911,54	42448,13
911,98	42841,33
912,41	43619,13
912,85	44569,07
913,28	45654,73
913,72	46671,33
914,15	47438,87
914,59	47985,33
915,02	47854,20
915,46	47135,93
915,89	45907,40
916,33	44475,20
916,76	43163,60
917,20	42496,40
917,63	42070,40
918,07	42133,60
918,50	42359,73
918,94	42568,80
919,37	42934,20
919,81	43647,47
920,24	43944,13
920,67	44493,80
921,11	45194,07
921,54	45837,53
921,98	46432,13
922,41	46595,20
922,85	46726,13
923,28	46518,93
923,72	46027,33
924,15	45393,87
924,58	44417,53
925,02	43587,00
925,45	42586,40
925,89	41529,67
926,32	40675,67
926,75	40024,93
927,19	40102,53
927,62	40270,40
928,06	40772,67
928,49	41239,33
928,92	41884,67
929,36	42646,00
929,79	43356,53
930,23	43844,27
930,66	43726,73
931,09	43315,40
931,53	42662,87
931,96	41529,60
932,39	40553,80
932,83	39496,27
933,26	38311,00
933,70	36984,80
934,13	36048,47
934,56	35371,87
935,00	34906,20
935,43	34537,93
935,86	34216,33
936,30	34149,33
936,73	33943,67
937,16	33999,07
937,60	33921,07
938,03	33584,60
938,46	33021,80
938,90	32218,67
939,33	31178,27
939,76	30017,00
940,19	28896,67
940,63	27740,40
941,06	26911,80
941,49	25963,40
941,93	25347,40
942,36	24931,53
942,79	24770,27
943,23	24880,27
943,66	24947,93
944,09	25178,93
944,52	25542,27
944,96	25899,07
945,39	26284,40
945,82	26655,27
946,26	27151,07
946,69	27647,40
947,12	28241,40
947,55	28443,20
947,99	28700,93
948,42	28730,80
948,85	28552,87
949,28	28143,40
949,72	27826,27
950,15	27630,93
950,58	27429,87
951,01	27269,80
951,45	27291,87
951,88	27633,13
952,31	28173,13
952,74	29103,13
953,17	30042,80
953,61	31188,93
954,04	32049,40
954,47	32861,87
954,90	33430,67
955,33	33742,33
955,77	33763,53
956,20	33560,33
956,63	33042,80
957,06	32606,13
957,49	32173,60
957,93	31567,60
958,36	31245,87
958,79	31120,27
959,22	30993,33
959,65	31069,53
960,08	31165,13
960,52	31543,33
960,95	32044,00
961,38	32694,47
961,81	33367,20
962,24	34070,53
962,67	34872,47
963,11	35368,73
963,54	36053,47
963,97	36317,53
964,40	36294,53
964,83	36080,33
965,26	35462,87
965,69	34886,47
966,13	34022,00
966,56	33292,87
966,99	32658,27
967,42	32090,27
967,85	31922,00
968,28	31902,87
968,71	32200,40
969,14	32121,93
969,57	32204,27
970,01	32272,07
970,44	32500,20
970,87	32850,07
971,30	33291,27
971,73	33624,07
972,16	34262,87
972,59	34852,53
973,02	35260,87
973,45	35427,53
973,88	35385,67
974,31	34905,13
974,74	34164,33
975,17	33461,00
975,61	32653,20
976,04	32056,67
976,47	31521,40
976,90	31182,53
977,33	30928,60
977,76	30977,07
978,19	30952,20
978,62	31212,33
979,05	31593,07
979,48	32082,40
979,91	32601,20
980,34	32926,00
980,77	33326,47
981,20	33743,93
981,63	34163,93
982,06	34216,00
982,49	34205,80
982,92	34179,53
983,35	34122,73
983,78	33805,73
984,21	33552,53
984,64	33164,00
985,07	32558,07
985,50	31996,27
985,93	31383,93
986,36	30858,47
986,79	30272,47
987,22	29782,40
987,65	29672,67
988,08	29593,07
988,51	29608,53
988,94	29884,00
989,37	30057,40
989,80	30455,40
990,23	30737,60
990,66	31269,27
991,09	31695,13
991,51	32000,27
991,94	32344,20
992,37	32341,13
992,80	32084,07
993,23	31805,60
993,66	31401,40
994,09	30953,67
994,52	30360,47
994,95	29854,87
995,38	29364,00
995,81	28801,27
996,24	28420,33
996,67	28193,07
997,09	27882,40
997,52	27877,87
997,95	27834,40
998,38	27908,00
998,81	28115,20
999,24	28228,87
999,67	28560,13
1000,10	28774,80
1000,53	29181,47
1000,95	29536,27
1001,38	29569,60
1001,81	29560,20
1002,24	29500,47
1002,67	29017,47
1003,10	28568,13
1003,53	27992,67
1003,95	27328,00
1004,38	26700,47
1004,81	26202,53
1005,24	25703,07
1005,67	25416,47
1006,10	25130,60
1006,52	24889,33
1006,95	24844,33
1007,38	24847,47
1007,81	24818,60
1008,24	24888,20
1008,67	24957,87
1009,09	25061,07
1009,52	25300,53
1009,95	25277,27
1010,38	25345,33
1010,81	25342,07
1011,23	25382,00
1011,66	25394,27
1012,09	25322,53
1012,52	25236,33
1012,95	24959,53
1013,37	24639,93
1013,80	24145,47
1014,23	23552,53
1014,66	23195,60
1015,08	22658,07
1015,51	22449,47
1015,94	22160,87
1016,37	22147,47
1016,80	22130,93
1017,22	22274,27
1017,65	22447,93
1018,08	22720,20
1018,51	22951,53
1018,93	23126,27
1019,36	23414,67
1019,79	23615,40
1020,21	23736,53
1020,64	23820,73
1021,07	23942,60
1021,50	24119,27
1021,92	24176,27
1022,35	24285,53
1022,78	24244,67
1023,21	24427,67
1023,63	24077,07
1024,06	23784,67
1024,49	23479,80
1024,91	23093,20
1025,34	22855,40
1025,77	22524,87
1026,19	22314,40
1026,62	22199,53
1027,05	22236,00
1027,47	22060,07
1027,90	21981,33
1028,33	22026,53
1028,75	22202,53
1029,18	22328,53
1029,61	22580,27
1030,03	22678,47
1030,46	22770,20
1030,89	22801,33
1031,31	22793,40
1031,74	22568,47
1032,17	22419,53
1032,59	22220,67
1033,02	21915,07
1033,45	21620,73
1033,87	21221,07
1034,30	20799,20
1034,73	20452,67
1035,15	20101,00
1035,58	19688,93
1036,00	19468,93
1036,43	19152,87
1036,86	18913,73
1037,28	18783,60
1037,71	18590,80
1038,13	18560,13
1038,56	18523,40
1038,99	18531,80
1039,41	18572,20
1039,84	18643,07
1040,26	18614,40
1040,69	18643,67
1041,11	18642,07
1041,54	18574,93
1041,97	18554,27
1042,39	18448,73
1042,82	18164,33
1043,24	17919,93
1043,67	17599,93
1044,09	17372,20
1044,52	17039,47
1044,95	16725,93
1045,37	16473,93
1045,80	16167,53
1046,22	15969,80
1046,65	15734,27
1047,07	15483,60
1047,50	15315,27
1047,92	15226,27
1048,35	15038,07
1048,77	15015,80
1049,20	14958,07
1049,62	14893,53
1050,05	14778,33
1050,47	14771,80
1050,90	14792,87
1051,32	14779,33
1051,75	14677,33
1052,17	14612,73
1052,60	14544,73
1053,02	14499,67
1053,45	14327,47
1053,87	14290,80
1054,30	14118,33
1054,72	13979,20
1055,15	13777,40
1055,57	13662,20
1056,00	13488,00
1056,42	13379,80
1056,85	13131,07
1057,27	12934,47
1057,70	12741,00
1058,12	12732,53
1058,54	12347,40
1058,97	12245,73
1059,39	12086,53
1059,82	11898,93
1060,24	11757,73
1060,67	11627,87
1061,09	11560,27
1061,51	11455,47
1061,94	11354,93
1062,36	11340,80
1062,79	11339,20
1063,21	11243,00
1063,64	11180,53
1064,06	11099,93
1064,48	11166,60
1064,91	11114,87
1065,33	10996,87
1065,76	10903,73
1066,18	10810,67
1066,60	10806,87
1067,03	10689,53
1067,45	10538,20
1067,87	10468,27
1068,30	10297,40
1068,72	10283,07
1069,15	10076,93
1069,57	9911,67
1069,99	9770,13
1070,42	9755,27
1070,84	9669,47
1071,26	9585,27
1071,69	9414,80
1072,11	9376,07
1072,53	9276,80
1072,96	9204,47
1073,38	9120,07
1073,80	9179,47
1074,23	9083,07
1074,65	9010,87
1075,07	9012,33
1075,50	9003,20
1075,92	8989,27
1076,34	8954,47
1076,77	8886,47
1077,19	8886,80
1077,61	8891,40
1078,04	8788,13
1078,46	8748,53
1078,88	8710,40
1079,30	8494,80
1079,73	8455,73
1080,15	8328,20
1080,57	8206,33
1081,00	8163,67
1081,42	8010,00
1081,84	7947,27
1082,26	7908,07
1082,69	7796,27
1083,11	7722,00
1083,53	7683,93
1083,95	7624,27
1084,38	7623,53
1084,80	7554,87
1085,22	7501,93
1085,64	7512,20
1086,07	7392,40
1086,49	7410,07
1086,91	7429,33
1087,33	7329,67
1087,76	7394,60
1088,18	8797,60
1088,60	7336,13
1089,02	7245,93
1089,45	7204,87
1089,87	7168,87
1090,29	7159,53
1090,71	7047,73
1091,13	6940,67
1091,56	6871,07
1091,98	6777,87
1092,40	6676,13
1092,82	6622,53
1093,24	6509,93
1093,66	6470,60
1094,09	6391,47
1094,51	6343,60
1094,93	6295,07
1095,35	6260,20
1095,77	6192,27
1096,19	6193,33
1096,62	6163,00
1097,04	6064,40
1097,46	6082,93
1097,88	6049,13
1098,30	6064,67
1098,72	6032,93
1099,15	6008,80
1099,57	5956,73
1099,99	5913,53
1100,41	5848,67
1100,83	5794,40
1101,25	5703,20
1101,67	5661,33
1102,09	5517,73
1102,52	5464,13
1102,94	5417,67
1103,36	5365,87
1103,78	5333,40
1104,20	5265,87
1104,62	5336,13
1105,04	5170,67
1105,46	5217,00
1105,88	5231,73
1106,30	5187,27
1106,73	5187,47
1107,15	5079,93
1107,57	5055,27
1107,99	5106,80
1108,41	4931,87
1108,83	4943,47
1109,25	4855,73
1109,67	4798,80
1110,09	4663,40
1110,51	4670,60
1110,93	4609,40
1111,35	4625,33
1111,77	4590,20
1112,19	4577,33
1112,61	4527,53
1113,03	4537,93
1113,45	4417,87
1113,87	4348,87
1114,29	4268,93
1114,71	4218,73
1115,13	4122,40
1115,55	4125,73
1115,98	4078,87
1116,40	3909,47
1116,82	3776,80
1117,24	3621,87
1117,66	3574,67
1118,08	2155,73
1118,50	2187,47
1118,91	2182,73
1119,33	2183,33
>>>>>End Processed Spectral Data<<<<<
