SpectraSuite Data File
++++++++++++++++++++++++++++++++++++
Date: Thu Mar 13 10:17:08 EET 2014
User: OO Maya
Dark Spectrum Present: No
Reference Spectrum Present: No
Number of Sampled Component Spectra: 1
Spectrometers: MAYP11278
Integration Time (usec): 600000 (MAYP11278)
Spectra Averaged: 15 (MAYP11278)
Boxcar Smoothing: 0 (MAYP11278)
Correct for Electrical Dark: No (MAYP11278)
Strobe/Lamp Enabled: No (MAYP11278)
Correct for Detector Non-linearity: No (MAYP11278)
Correct for Stray Light: No (MAYP11278)
Number of Pixels in Processed Spectrum: 2068
>>>>>Begin Processed Spectral Data<<<<<
188,22	2313,87
188,70	2228,20
189,18	2200,67
189,66	2202,13
190,13	3265,67
190,61	3364,33
191,09	3441,47
191,57	3471,40
192,05	3549,40
192,53	3476,87
193,00	3452,40
193,48	3409,20
193,96	3485,93
194,44	3463,80
194,92	3500,20
195,40	3455,00
195,87	3535,13
196,35	3454,27
196,83	3464,33
197,31	3642,87
197,79	3480,73
198,26	3436,47
198,74	3459,87
199,22	3439,67
199,70	3507,87
200,18	3530,40
200,65	3444,87
201,13	3472,40
201,61	3535,33
202,09	3524,80
202,56	3535,60
203,04	3423,27
203,52	3508,60
204,00	3436,53
204,47	3541,13
204,95	3556,40
205,43	3451,00
205,91	3450,33
206,39	3580,20
206,86	3458,80
207,34	3503,93
207,82	3663,53
208,30	3484,33
208,77	3530,33
209,25	3473,73
209,73	3549,93
210,20	3519,80
210,68	3492,93
211,16	3480,20
211,64	3518,67
212,11	3485,20
212,59	3448,47
213,07	3613,13
213,55	3531,33
214,02	3451,33
214,50	3618,00
214,98	3507,40
215,45	3584,93
215,93	3513,87
216,41	3537,20
216,89	3543,60
217,36	3534,00
217,84	3458,80
218,32	3489,93
218,79	3575,47
219,27	3404,20
219,75	3444,27
220,22	3462,67
220,70	3483,73
221,18	3659,27
221,65	3468,53
222,13	3553,67
222,61	3463,67
223,08	3561,00
223,56	3484,47
224,04	3560,80
224,51	3496,53
224,99	3479,67
225,47	3445,20
225,94	3491,00
226,42	3456,60
226,90	3513,47
227,37	3580,27
227,85	3493,47
228,33	3544,40
228,80	3556,87
229,28	3549,47
229,76	3504,67
230,23	3519,93
230,71	3482,33
231,18	3547,73
231,66	3590,27
232,14	3517,20
232,61	3517,33
233,09	3445,33
233,57	3521,53
234,04	3539,33
234,52	3750,53
234,99	3529,40
235,47	3471,60
235,95	3477,33
236,42	3438,47
236,90	3576,13
237,37	3659,33
237,85	3480,80
238,33	3516,47
238,80	3514,53
239,28	3521,53
239,75	3508,20
240,23	3446,00
240,70	3553,33
241,18	3589,33
241,66	3533,27
242,13	3502,87
242,61	3570,80
243,08	3590,60
243,56	3449,53
244,03	3453,80
244,51	3564,00
244,99	3611,13
245,46	3495,33
245,94	3603,33
246,41	3589,27
246,89	3471,20
247,36	3520,60
247,84	3523,60
248,31	3541,13
248,79	3551,33
249,26	3413,80
249,74	3540,73
250,22	3579,27
250,69	3538,20
251,17	3620,27
251,64	3525,60
252,12	3655,60
252,59	3615,00
253,07	3504,00
253,54	3614,47
254,02	3528,80
254,49	3521,67
254,97	3545,53
255,44	3561,47
255,92	3581,33
256,39	3501,60
256,87	3545,53
257,34	3553,67
257,82	3593,80
258,29	3735,07
258,77	3547,53
259,24	3513,20
259,72	3547,40
260,19	3585,60
260,67	3652,00
261,14	3525,20
261,61	3506,20
262,09	3622,40
262,56	3487,13
263,04	3563,13
263,51	3546,53
263,99	3456,53
264,46	3604,60
264,94	3609,00
265,41	3505,53
265,89	3547,07
266,36	3555,33
266,83	3583,80
267,31	3529,27
267,78	3534,40
268,26	3569,40
268,73	3593,33
269,21	3456,07
269,68	3504,07
270,15	3533,93
270,63	3590,73
271,10	3625,80
271,58	3535,60
272,05	3573,60
272,53	3481,67
273,00	3479,27
273,47	3437,67
273,95	3578,13
274,42	3803,80
274,90	3621,20
275,37	3616,67
275,84	3520,53
276,32	3559,73
276,79	3602,00
277,26	3617,87
277,74	3492,67
278,21	3552,73
278,69	3495,73
279,16	3831,80
279,63	3540,20
280,11	3535,13
280,58	3818,93
281,05	3641,73
281,53	3803,53
282,00	3538,47
282,48	3667,33
282,95	3566,47
283,42	3564,07
283,90	3603,53
284,37	3523,33
284,84	3507,93
285,32	3620,33
285,79	3569,33
286,26	3593,27
286,74	3598,07
287,21	3511,00
287,68	3614,87
288,16	3694,53
288,63	3569,47
289,10	3648,20
289,58	3489,33
290,05	3692,67
290,52	3547,33
291,00	3614,07
291,47	3565,27
291,94	3641,87
292,41	3754,07
292,89	3543,93
293,36	3666,80
293,83	3583,20
294,31	3653,00
294,78	3636,33
295,25	3579,07
295,73	3634,27
296,20	3655,60
296,67	3759,20
297,14	3734,80
297,62	3679,80
298,09	3659,47
298,56	3660,67
299,03	3591,47
299,51	3732,73
299,98	3616,40
300,45	3656,33
300,92	3584,20
301,40	3699,53
301,87	3705,33
302,34	3706,27
302,82	3604,27
303,29	3722,53
303,76	3731,80
304,23	3640,07
304,70	3647,40
305,18	3622,87
305,65	3699,00
306,12	3704,33
306,59	3694,93
307,07	3704,33
307,54	3646,00
308,01	3654,20
308,48	3696,67
308,95	3664,53
309,43	3752,93
309,90	3756,20
310,37	3726,87
310,84	3725,60
311,32	3732,80
311,79	3689,00
312,26	3775,13
312,73	3713,93
313,20	3855,47
313,68	3682,20
314,15	3700,20
314,62	3725,47
315,09	3690,13
315,56	3683,27
316,03	3790,33
316,51	3765,13
316,98	3741,27
317,45	3780,80
317,92	3750,40
318,39	3965,73
318,86	3772,80
319,34	3763,73
319,81	3697,53
320,28	3813,40
320,75	3915,60
321,22	3840,13
321,69	3781,13
322,16	3696,27
322,64	3737,80
323,11	3913,67
323,58	3774,07
324,05	3961,47
324,52	3711,33
324,99	3810,07
325,46	3803,53
325,94	3817,33
326,41	3819,67
326,88	3837,13
327,35	3926,47
327,82	3910,47
328,29	3930,93
328,76	3889,93
329,23	3856,27
329,70	3859,00
330,18	3850,27
330,65	3815,20
331,12	3917,40
331,59	3881,33
332,06	3978,67
332,53	3823,07
333,00	4039,73
333,47	3989,47
333,94	4002,07
334,41	4065,47
334,88	3991,53
335,35	4044,73
335,83	4265,27
336,30	3971,87
336,77	4029,67
337,24	3990,60
337,71	4033,87
338,18	3988,27
338,65	4005,07
339,12	4112,60
339,59	4074,47
340,06	3934,13
340,53	3968,33
341,00	3947,20
341,47	4046,67
341,94	4091,87
342,41	4006,60
342,88	4052,13
343,35	4080,27
343,82	4065,60
344,29	4015,13
344,76	4041,07
345,23	3985,13
345,70	4045,20
346,17	4083,13
346,64	4008,47
347,11	4016,87
347,58	4153,67
348,05	4027,07
348,52	4158,13
348,99	4077,87
349,46	3986,73
349,93	4094,13
350,40	4154,73
350,87	4101,33
351,34	4050,93
351,81	4119,27
352,28	4224,87
352,75	4128,20
353,22	4105,87
353,69	4133,53
354,16	4187,87
354,63	4163,00
355,10	4185,73
355,57	4165,00
356,04	4264,93
356,51	4125,80
356,98	4289,40
357,45	4127,07
357,92	4344,33
358,39	4233,53
358,86	4143,27
359,33	4160,60
359,80	4193,80
360,27	4202,20
360,74	4283,87
361,20	4347,47
361,67	4240,53
362,14	4243,40
362,61	4269,27
363,08	4257,73
363,55	4282,73
364,02	4463,27
364,49	4338,67
364,96	4288,87
365,43	4368,60
365,90	4322,40
366,37	4287,27
366,83	4380,47
367,30	4383,47
367,77	5886,13
368,24	4279,40
368,71	4363,33
369,18	4474,27
369,65	4358,60
370,12	4508,13
370,59	4470,53
371,05	4439,20
371,52	4443,53
371,99	4519,40
372,46	4466,47
372,93	4430,27
373,40	4539,47
373,87	4569,67
374,33	4491,47
374,80	4519,80
375,27	4622,40
375,74	4515,07
376,21	4752,00
376,68	4633,73
377,15	4608,60
377,61	4619,07
378,08	4732,73
378,55	4732,00
379,02	4745,60
379,49	4743,00
379,96	4780,40
380,42	4832,73
380,89	4928,27
381,36	4854,00
381,83	4974,27
382,30	4989,27
382,76	4825,33
383,23	4941,67
383,70	4930,87
384,17	5041,93
384,64	5009,73
385,10	5376,73
385,57	5047,40
386,04	5035,73
386,51	5067,40
386,98	5243,13
387,44	5075,20
387,91	5069,87
388,38	5237,87
388,85	5228,67
389,31	5305,87
389,78	5198,67
390,25	5325,47
390,72	5300,93
391,19	5358,27
391,65	5378,33
392,12	5396,33
392,59	5439,80
393,06	5420,80
393,52	5450,13
393,99	5670,27
394,46	5529,53
394,93	5633,27
395,39	5549,00
395,86	5672,07
396,33	5973,60
396,80	5607,47
397,26	5758,20
397,73	5786,60
398,20	5709,53
398,66	5792,87
399,13	5783,60
399,60	5785,07
400,07	5953,47
400,53	5841,67
401,00	5936,00
401,47	5943,33
401,93	6043,27
402,40	6051,20
402,87	6087,00
403,34	6066,73
403,80	6240,20
404,27	6178,20
404,74	6311,40
405,20	6372,27
405,67	6362,07
406,14	6250,40
406,60	6402,47
407,07	6408,13
407,54	6563,40
408,00	6429,93
408,47	6478,13
408,94	6529,40
409,40	6466,93
409,87	6669,73
410,34	6562,60
410,80	6709,27
411,27	6631,47
411,74	6804,53
412,20	6724,67
412,67	6676,20
413,14	6860,67
413,60	6851,00
414,07	6908,80
414,53	7006,40
415,00	7099,33
415,47	7014,20
415,93	7193,80
416,40	7103,73
416,87	7162,00
417,33	7273,73
417,80	7225,20
418,26	7215,33
418,73	7284,67
419,20	7335,13
419,66	7404,33
420,13	7358,87
420,59	7491,13
421,06	7409,67
421,53	7515,60
421,99	7523,73
422,46	7640,20
422,92	7588,53
423,39	7669,47
423,86	7743,47
424,32	7840,13
424,79	7789,20
425,25	7906,20
425,72	7905,93
426,18	8019,07
426,65	7970,47
427,11	8097,07
427,58	8111,60
428,05	8175,53
428,51	8100,60
428,98	8279,33
429,44	8277,40
429,91	8282,13
430,37	8346,67
430,84	8601,87
431,30	8377,93
431,77	8471,87
432,23	8632,53
432,70	8629,20
433,17	8603,73
433,63	8642,40
434,10	8721,60
434,56	8759,53
435,03	8886,33
435,49	8840,40
435,96	8978,80
436,42	8996,20
436,89	8952,67
437,35	9130,07
437,82	9159,13
438,28	9182,00
438,75	9195,13
439,21	9262,47
439,68	9596,07
440,14	9382,80
440,61	9456,67
441,07	9521,33
441,54	9452,40
442,00	9556,33
442,47	9778,13
442,93	9602,67
443,39	9722,13
443,86	9769,07
444,32	9739,53
444,79	9993,13
445,25	9969,67
445,72	9998,80
446,18	10037,27
446,65	10096,13
447,11	10137,87
447,58	10204,80
448,04	10221,73
448,50	10242,53
448,97	10396,07
449,43	10443,73
449,90	10450,67
450,36	10476,53
450,83	10516,00
451,29	10606,80
451,75	10730,67
452,22	10836,60
452,68	10780,27
453,15	10989,80
453,61	10932,33
454,08	11030,07
454,54	11075,40
455,00	11170,40
455,47	11185,47
455,93	11274,60
456,40	11365,87
456,86	11328,13
457,32	11502,27
457,79	11477,67
458,25	11545,40
458,71	11548,13
459,18	11682,40
459,64	11743,27
460,11	11828,27
460,57	11869,73
461,03	11866,47
461,50	12078,87
461,96	12130,87
462,42	12058,47
462,89	12108,47
463,35	12336,80
463,81	12283,60
464,28	12337,93
464,74	12440,00
465,21	12393,53
465,67	12485,40
466,13	12671,13
466,60	12643,60
467,06	12759,20
467,52	12812,07
467,99	12845,07
468,45	12944,07
468,91	13006,67
469,37	13063,60
469,84	13079,20
470,30	13232,20
470,76	13244,13
471,23	13286,27
471,69	13341,93
472,15	13397,67
472,62	13493,13
473,08	13570,60
473,54	13744,73
474,01	13724,47
474,47	13731,80
474,93	13818,80
475,39	13844,53
475,86	14002,80
476,32	14035,80
476,78	14125,07
477,25	14163,80
477,71	14230,87
478,17	14407,13
478,63	14405,87
479,10	14498,60
479,56	14449,27
480,02	14711,07
480,48	14706,07
480,95	14762,53
481,41	14785,67
481,87	14879,13
482,33	14990,20
482,80	14961,27
483,26	15056,13
483,72	15094,07
484,18	15212,73
484,65	15418,47
485,11	15397,33
485,57	15456,40
486,03	15393,07
486,49	15569,20
486,96	15545,47
487,42	15758,27
487,88	15730,53
488,34	15821,67
488,80	15899,33
489,27	16034,33
489,73	16138,87
490,19	16224,27
490,65	16200,67
491,11	16326,20
491,58	16327,27
492,04	16419,00
492,50	16472,33
492,96	16666,40
493,42	16701,93
493,89	16786,60
494,35	16797,53
494,81	16917,80
495,27	16957,40
495,73	17001,20
496,19	17161,07
496,66	17195,60
497,12	17319,13
497,58	17468,27
498,04	17542,00
498,50	17499,40
498,96	17587,20
499,43	17665,07
499,89	17930,93
500,35	17848,07
500,81	17910,60
501,27	18004,80
501,73	18082,67
502,19	18233,27
502,65	18243,53
503,12	18314,67
503,58	18408,53
504,04	18514,73
504,50	18538,93
504,96	18671,33
505,42	18763,87
505,88	18757,47
506,34	18859,93
506,80	18996,87
507,27	19005,53
507,73	19172,47
508,19	19183,73
508,65	19210,27
509,11	19266,53
509,57	19331,93
510,03	19479,13
510,49	19547,40
510,95	19585,40
511,41	19791,20
511,87	19895,73
512,33	19861,07
512,80	19868,53
513,26	20011,33
513,72	20199,87
514,18	20151,20
514,64	20364,67
515,10	20529,33
515,56	20414,47
516,02	20577,53
516,48	20711,80
516,94	20828,67
517,40	21022,13
517,86	20916,80
518,32	21035,87
518,78	21352,47
519,24	21237,33
519,70	21270,33
520,16	21347,67
520,62	21468,80
521,08	21674,00
521,54	21794,20
522,00	21894,73
522,46	21953,33
522,92	21987,47
523,38	22235,07
523,84	22305,33
524,30	22336,47
524,76	22552,53
525,22	22575,07
525,68	22647,13
526,14	22788,27
526,60	22823,73
527,06	22892,80
527,52	22998,80
527,98	23069,13
528,44	23218,27
528,90	23295,67
529,36	23378,67
529,82	23363,80
530,28	23574,40
530,74	23646,07
531,20	23601,47
531,66	23850,73
532,12	23884,47
532,58	23986,80
533,04	24108,00
533,50	24196,13
533,96	24252,27
534,42	24279,20
534,88	24422,20
535,33	24459,53
535,79	24633,80
536,25	24673,73
536,71	24820,67
537,17	24816,53
537,63	25065,73
538,09	25163,27
538,55	25127,93
539,01	25389,00
539,47	25414,53
539,93	25833,33
540,39	25422,80
540,84	25742,20
541,30	25751,20
541,76	25696,27
542,22	25911,13
542,68	26045,27
543,14	26061,07
543,60	26328,20
544,06	26159,20
544,52	26427,20
544,97	26462,27
545,43	26469,13
545,89	26567,13
546,35	26714,47
546,81	26792,33
547,27	26844,13
547,73	26917,00
548,19	26976,93
548,64	27125,93
549,10	27153,73
549,56	27235,40
550,02	27561,53
550,48	27511,00
550,94	27497,80
551,39	27715,27
551,85	27812,33
552,31	27953,53
552,77	27953,20
553,23	28017,20
553,69	28087,67
554,14	28140,73
554,60	28213,73
555,06	28407,47
555,52	28495,00
555,98	28709,80
556,43	28753,07
556,89	28918,00
557,35	28816,07
557,81	29025,93
558,27	29224,40
558,72	29162,13
559,18	29242,67
559,64	29312,87
560,10	29455,80
560,56	29496,73
561,01	29607,20
561,47	29700,33
561,93	29799,53
562,39	29885,73
562,85	29982,33
563,30	30109,47
563,76	30234,47
564,22	30219,07
564,68	30412,73
565,13	30436,20
565,59	30501,20
566,05	30645,20
566,51	30819,27
566,96	30810,67
567,42	30837,60
567,88	31002,07
568,34	31139,07
568,79	31165,20
569,25	31254,00
569,71	31391,73
570,16	31474,40
570,62	31563,07
571,08	31709,93
571,54	31796,73
571,99	31824,33
572,45	31939,07
572,91	32049,20
573,36	32029,93
573,82	32180,13
574,28	32295,00
574,74	32485,87
575,19	32470,07
575,65	32488,67
576,11	32675,73
576,56	32594,33
577,02	32876,93
577,48	32912,87
577,93	33011,40
578,39	33099,27
578,85	33345,67
579,30	33352,20
579,76	33376,60
580,22	33557,00
580,67	33640,53
581,13	33687,13
581,59	33807,13
582,04	33862,60
582,50	33935,20
582,96	34009,53
583,41	34122,27
583,87	34224,53
584,33	34319,47
584,78	34436,93
585,24	34493,33
585,69	34754,27
586,15	34655,20
586,61	34715,87
587,06	34825,20
587,52	34917,40
587,98	35074,80
588,43	35030,60
588,89	35170,40
589,34	35261,80
589,80	35309,53
590,26	35507,13
590,71	35634,27
591,17	35648,20
591,62	35696,93
592,08	35897,40
592,54	35909,87
592,99	36004,33
593,45	36104,53
593,90	36185,87
594,36	36220,07
594,81	36307,60
595,27	36480,27
595,73	36435,20
596,18	36532,00
596,64	36714,80
597,09	36745,93
597,55	36819,20
598,00	36828,07
598,46	36793,53
598,92	37026,80
599,37	37259,60
599,83	37211,80
600,28	37435,00
600,74	37582,67
601,19	37608,13
601,65	37722,73
602,10	37651,93
602,56	37963,60
603,01	37895,27
603,47	37943,80
603,92	37931,67
604,38	37997,40
604,83	38190,80
605,29	38230,93
605,74	38316,40
606,20	38350,87
606,65	38350,60
607,11	38478,40
607,56	38533,07
608,02	38638,40
608,47	38754,60
608,93	38755,67
609,38	39003,67
609,84	39047,13
610,29	39070,00
610,75	39135,33
611,20	39303,27
611,66	39284,87
612,11	39707,40
612,57	39712,73
613,02	39746,87
613,48	40121,00
613,93	39959,53
614,39	40040,20
614,84	40196,73
615,30	40302,93
615,75	40497,27
616,20	40561,53
616,66	40640,20
617,11	40790,20
617,57	40843,40
618,02	41034,00
618,48	41032,73
618,93	41161,07
619,38	41267,73
619,84	41469,20
620,29	41583,00
620,75	41743,73
621,20	41874,20
621,66	41977,53
622,11	42125,40
622,56	42247,00
623,02	42257,73
623,47	42321,87
623,93	42418,87
624,38	42670,40
624,83	42605,27
625,29	42806,80
625,74	42857,27
626,20	42865,13
626,65	43075,87
627,10	43184,47
627,56	43207,80
628,01	43370,13
628,46	43464,47
628,92	43404,67
629,37	43616,40
629,82	43742,20
630,28	43761,80
630,73	43886,27
631,19	43876,40
631,64	44020,33
632,09	44046,80
632,55	44165,33
633,00	44220,33
633,45	44276,47
633,91	44268,20
634,36	44354,27
634,81	44394,47
635,27	44498,53
635,72	44615,00
636,17	44592,27
636,63	44717,00
637,08	44869,80
637,53	44810,40
637,99	44980,73
638,44	44995,60
638,89	45035,40
639,34	45160,40
639,80	45143,47
640,25	45228,40
640,70	45378,80
641,16	45536,27
641,61	45441,13
642,06	45586,27
642,51	45599,73
642,97	45645,20
643,42	45754,67
643,87	45942,93
644,33	45941,00
644,78	45943,33
645,23	46084,53
645,68	46088,93
646,14	46179,73
646,59	46277,80
647,04	46415,13
647,49	46554,53
647,95	46505,67
648,40	46503,93
648,85	46492,20
649,30	46761,53
649,76	46767,47
650,21	47198,60
650,66	46851,13
651,11	46882,47
651,57	46932,13
652,02	46984,53
652,47	47034,60
652,92	47166,13
653,37	47261,27
653,83	47313,53
654,28	47361,07
654,73	47415,27
655,18	47427,47
655,63	47471,33
656,09	47599,00
656,54	47662,87
656,99	47731,47
657,44	47880,53
657,89	48017,93
658,35	47931,27
658,80	47944,40
659,25	47964,27
659,70	48319,27
660,15	48051,93
660,60	48319,20
661,06	48341,27
661,51	48374,00
661,96	48399,13
662,41	48437,13
662,86	48405,40
663,31	48492,60
663,77	48561,53
664,22	48598,73
664,67	48726,40
665,12	48771,93
665,57	48846,60
666,02	48739,07
666,47	48807,07
666,93	48842,07
667,38	49098,40
667,83	49204,40
668,28	49175,40
668,73	49283,20
669,18	49294,73
669,63	49458,13
670,08	49264,87
670,53	49343,07
670,99	49544,87
671,44	49621,53
671,89	49875,00
672,34	49937,93
672,79	49866,00
673,24	49872,93
673,69	49923,53
674,14	50005,07
674,59	49912,87
675,04	50048,07
675,49	50026,40
675,95	50163,53
676,40	50258,27
676,85	50299,20
677,30	50259,00
677,75	50193,53
678,20	50448,60
678,65	50349,07
679,10	50513,93
679,55	50633,87
680,00	50674,27
680,45	50780,40
680,90	50762,27
681,35	50680,67
681,80	50565,27
682,25	50710,20
682,70	50831,27
683,15	51039,60
683,60	51172,47
684,05	51219,93
684,50	51247,87
684,95	51092,80
685,40	51072,93
685,85	51072,73
686,30	51171,53
686,75	51277,27
687,20	51401,27
687,65	51450,07
688,10	51565,73
688,55	51535,87
689,00	51653,93
689,45	51536,73
689,90	51509,33
690,35	51522,13
690,80	51575,07
691,25	51510,80
691,70	51549,33
692,15	51425,80
692,60	51525,13
693,05	51677,93
693,50	51875,40
693,95	52027,93
694,40	52155,33
694,85	52342,33
695,30	52632,87
695,75	52438,53
696,20	52438,00
696,65	52521,07
697,10	52329,67
697,55	52234,67
698,00	52280,73
698,45	52246,47
698,90	52502,33
699,34	52660,93
699,79	52697,47
700,24	52772,47
700,69	52909,67
701,14	52864,00
701,59	52960,13
702,04	52523,80
702,49	52721,13
702,94	52705,27
703,39	52843,73
703,84	53013,27
704,28	53088,33
704,73	53116,33
705,18	53252,27
705,63	53039,33
706,08	52954,60
706,53	52832,80
706,98	52963,40
707,43	53135,73
707,87	53306,60
708,32	53501,93
708,77	53489,80
709,22	53428,53
709,67	53266,33
710,12	53177,13
710,57	53106,60
711,01	53134,13
711,46	53418,13
711,91	53511,80
712,36	53644,53
712,81	53594,53
713,26	53713,27
713,71	53529,67
714,15	53491,87
714,60	53502,40
715,05	53460,20
715,50	53519,60
715,95	53575,00
716,39	53749,67
716,84	53765,47
717,29	53622,27
717,74	53522,13
718,19	53543,20
718,63	53492,07
719,08	53272,00
719,53	53271,53
719,98	53495,80
720,43	53584,13
720,87	53541,60
721,32	53609,20
721,77	53449,33
722,22	53498,07
722,67	53297,27
723,11	53123,93
723,56	53048,20
724,01	53188,07
724,46	53212,33
724,90	53358,93
725,35	53417,80
725,80	53536,20
726,25	53519,73
726,69	53573,33
727,14	53617,47
727,59	53326,73
728,04	53459,07
728,48	53517,87
728,93	53604,20
729,38	53698,73
729,83	53812,00
730,27	54096,73
730,72	54175,60
731,17	54400,13
731,61	54516,53
732,06	54366,67
732,51	54422,07
732,96	54321,80
733,40	54539,60
733,85	54691,60
734,30	54980,00
734,74	55242,80
735,19	55409,47
735,64	55489,80
736,09	55802,33
736,53	55586,33
736,98	55538,60
737,43	55558,33
737,87	55527,87
738,32	55513,93
738,77	55653,33
739,21	55860,80
739,66	56035,13
740,11	56181,40
740,55	56149,13
741,00	56036,73
741,45	56040,67
741,89	56081,00
742,34	55947,27
742,79	55869,53
743,23	55775,47
743,68	55786,67
744,12	55948,80
744,57	56095,27
745,02	56232,40
745,46	56227,00
745,91	56312,00
746,36	56250,87
746,80	55898,53
747,25	55648,40
747,69	55550,27
748,14	55675,60
748,59	55700,40
749,03	55830,33
749,48	55937,33
749,92	56145,13
750,37	56105,33
750,82	55925,93
751,26	55929,80
751,71	55831,40
752,15	55704,93
752,60	55513,93
753,05	55514,87
753,49	55356,80
753,94	55451,27
754,38	55588,53
754,83	55804,13
755,27	55865,33
755,72	55779,27
756,17	55647,73
756,61	55382,33
757,06	55121,93
757,50	55149,20
757,95	55039,20
758,39	55121,07
758,84	55207,40
759,28	55300,80
759,73	55249,33
760,17	55338,60
760,62	55173,60
761,07	54955,33
761,51	54786,67
761,96	54725,87
762,40	54578,93
762,85	54640,53
763,29	54939,80
763,74	55341,40
764,18	55570,33
764,63	55723,53
765,07	55770,33
765,52	55694,67
765,96	55382,33
766,41	55232,27
766,85	54907,27
767,30	54894,93
767,74	55016,00
768,19	55315,60
768,63	55652,93
769,07	56003,07
769,52	56492,40
769,96	56467,60
770,41	56469,53
770,85	56403,67
771,30	56198,27
771,74	56062,27
772,19	55923,27
772,63	55744,73
773,08	55649,07
773,52	55632,13
773,97	55643,40
774,41	55715,27
774,85	55993,07
775,30	56177,07
775,74	56491,13
776,19	56653,40
776,63	56562,87
777,08	56322,00
777,52	56129,67
777,96	55942,60
778,41	55676,73
778,85	55530,07
779,30	55519,80
779,74	55742,40
780,18	55955,07
780,63	56034,33
781,07	56328,47
781,52	56271,80
781,96	56229,20
782,40	56134,60
782,85	55820,53
783,29	55553,67
783,74	55283,53
784,18	54952,73
784,62	54790,73
785,07	54816,80
785,51	54977,20
785,95	55217,07
786,40	55469,80
786,84	55771,80
787,28	55968,53
787,73	55603,13
788,17	55319,53
788,61	55080,53
789,06	54803,60
789,50	54568,07
789,94	54320,93
790,39	54194,60
790,83	54135,00
791,27	54362,93
791,72	54892,40
792,16	55127,07
792,60	55319,47
793,05	55319,00
793,49	55450,20
793,93	54932,87
794,38	54310,60
794,82	53800,33
795,26	53456,53
795,71	53275,00
796,15	53445,53
796,59	53626,73
797,03	54009,60
797,48	54310,47
797,92	54471,53
798,36	54653,60
798,81	54637,53
799,25	54374,40
799,69	53845,67
800,13	53499,20
800,58	52983,47
801,02	52737,60
801,46	52777,47
801,90	52866,40
802,35	53076,80
802,79	53661,13
803,23	54087,40
803,67	54390,60
804,12	54457,20
804,56	54231,27
805,00	53887,07
805,44	53400,13
805,89	52846,27
806,33	52246,47
806,77	51874,33
807,21	52013,93
807,66	51953,47
808,10	52262,87
808,54	52611,93
808,98	53028,07
809,42	53321,60
809,87	53594,00
810,31	53588,53
810,75	53613,00
811,19	53457,20
811,63	53156,00
812,08	52353,53
812,52	51819,53
812,96	51667,67
813,40	51420,07
813,84	51267,33
814,28	51285,40
814,73	51626,13
815,17	52192,13
815,61	52777,67
816,05	53059,47
816,49	53182,80
816,93	53168,20
817,38	53044,40
817,82	52645,00
818,26	52286,67
818,70	51545,47
819,14	51174,67
819,58	50922,53
820,03	50749,67
820,47	50876,60
820,91	51078,07
821,35	51531,47
821,79	51832,27
822,23	52427,67
822,67	52564,53
823,11	52765,13
823,55	52754,87
824,00	52360,67
824,44	52086,13
824,88	51569,73
825,32	51259,00
825,76	50951,87
826,20	50696,20
826,64	50651,07
827,08	50809,33
827,52	51117,07
827,96	51649,80
828,41	52090,27
828,85	52271,53
829,29	52368,33
829,73	52438,40
830,17	52167,07
830,61	52004,07
831,05	51499,20
831,49	50988,93
831,93	50440,60
832,37	50259,93
832,81	50316,80
833,25	50770,07
833,69	51345,47
834,13	51835,93
834,57	52265,67
835,01	52698,80
835,45	52628,93
835,89	52408,67
836,33	51901,40
836,77	51170,27
837,22	50661,93
837,66	50261,47
838,10	49926,33
838,54	49909,20
838,98	50166,33
839,42	50433,40
839,86	51042,67
840,30	51742,80
840,74	52272,20
841,18	52903,00
841,62	52918,13
842,06	52820,53
842,50	52406,00
842,94	51895,13
843,37	51131,00
843,81	50304,13
844,25	49799,80
844,69	49435,00
845,13	49492,73
845,57	49793,47
846,01	50313,07
846,45	50932,33
846,89	51522,73
847,33	52243,20
847,77	52888,07
848,21	53115,00
848,65	53256,07
849,09	53083,33
849,53	52937,33
849,97	52486,47
850,41	51894,53
850,85	51180,60
851,29	50758,33
851,73	50276,00
852,16	49989,60
852,60	49877,60
853,04	49990,47
853,48	50423,67
853,92	51066,20
854,36	51875,00
854,80	52912,27
855,24	53311,07
855,68	53479,27
856,12	53365,67
856,55	52949,33
856,99	52172,40
857,43	51239,73
857,87	50319,40
858,31	49678,00
858,75	49560,07
859,19	49306,73
859,63	49839,47
860,06	50524,60
860,50	51340,87
860,94	52030,87
861,38	52934,00
861,82	53252,93
862,26	53286,13
862,70	53272,33
863,13	53006,67
863,57	52318,87
864,01	51716,67
864,45	50859,53
864,89	50419,93
865,33	50112,27
865,76	50022,13
866,20	50316,27
866,64	50537,93
867,08	51091,73
867,52	51613,67
867,96	52425,40
868,39	52983,27
868,83	53314,13
869,27	53448,87
869,71	53142,47
870,15	52376,60
870,58	51333,40
871,02	50062,87
871,46	49247,07
871,90	48917,53
872,34	48691,13
872,77	48975,20
873,21	49542,33
873,65	50260,27
874,09	51307,13
874,52	52169,07
874,96	52769,87
875,40	53150,53
875,84	53449,47
876,27	53102,47
876,71	53089,87
877,15	52394,13
877,59	51556,40
878,02	50748,53
878,46	50063,93
878,90	49461,80
879,34	48899,00
879,77	48869,73
880,21	48824,13
880,65	49039,00
881,09	49766,87
881,52	50909,87
881,96	52070,93
882,40	52953,00
882,83	53744,80
883,27	54149,00
883,71	53968,67
884,14	53549,87
884,58	52706,20
885,02	51823,00
885,46	50926,13
885,89	50069,47
886,33	49185,00
886,77	48629,87
887,20	48629,07
887,64	48442,33
888,08	48961,20
888,51	49569,20
888,95	50238,53
889,39	51324,13
889,82	51681,93
890,26	52444,87
890,70	53140,20
891,13	53797,73
891,57	54223,93
892,01	54151,47
892,44	53425,47
892,88	52390,73
893,31	51201,33
893,75	50338,07
894,19	49676,67
894,62	49076,20
895,06	48986,80
895,50	48820,60
895,93	49136,40
896,37	49848,20
896,80	50928,80
897,24	51845,87
897,68	52652,93
898,11	53720,67
898,55	54435,40
898,98	54876,07
899,42	54505,87
899,86	53805,53
900,29	52893,27
900,73	52197,47
901,16	51030,60
901,60	49911,27
902,04	49131,80
902,47	48726,40
902,91	48362,27
903,34	48339,33
903,78	48907,80
904,21	49291,87
904,65	49746,73
905,09	50200,80
905,52	50848,67
905,96	51494,80
906,39	52052,07
906,83	52381,87
907,26	52976,67
907,70	53193,93
908,13	52976,20
908,57	52491,60
909,00	51782,87
909,44	50808,20
909,87	49742,33
910,31	48840,60
910,74	48307,47
911,18	48049,27
911,62	48303,07
912,05	48692,47
912,49	49469,87
912,92	50500,20
913,36	51626,80
913,79	52654,80
914,22	53498,87
914,66	54229,07
915,09	54109,53
915,53	53629,00
915,96	52317,20
916,40	50955,00
916,83	49510,33
917,27	48770,67
917,70	48292,80
918,14	48316,93
918,57	48521,80
919,01	48702,80
919,44	49014,40
919,88	49809,80
920,31	50273,20
920,75	50860,47
921,18	51596,40
921,61	52319,87
922,05	52939,93
922,48	53200,13
922,92	53288,73
923,35	53141,07
923,79	52771,67
924,22	52050,33
924,65	51057,33
925,09	50269,93
925,52	49239,87
925,96	48277,47
926,39	47376,07
926,82	46689,13
927,26	46808,73
927,69	47027,00
928,13	47677,27
928,56	48134,40
928,99	48768,07
929,43	49714,80
929,86	50485,73
930,30	50977,60
930,73	50964,87
931,16	50557,87
931,60	50054,80
932,03	48942,80
932,46	48032,07
932,90	47101,00
933,33	45997,20
933,76	44671,47
934,20	43680,53
934,63	43054,67
935,07	42740,80
935,50	42580,33
935,93	42385,33
936,37	42669,20
936,80	42810,53
937,23	43304,07
937,67	43496,67
938,10	43469,47
938,53	43264,93
938,96	42790,87
939,40	41858,27
939,83	40618,20
940,26	39577,00
940,70	38308,60
941,13	37300,67
941,56	36230,40
942,00	35618,47
942,43	35049,00
942,86	34907,87
943,29	35021,07
943,73	35207,80
944,16	35474,40
944,59	35903,93
945,03	36428,33
945,46	36840,27
945,89	37232,07
946,32	37792,13
946,76	38415,13
947,19	39008,93
947,62	39192,73
948,05	39294,53
948,49	39220,20
948,92	38877,13
949,35	38311,20
949,78	37746,87
950,22	37411,20
950,65	36921,80
951,08	36440,60
951,51	36303,53
951,95	36545,93
952,38	36966,00
952,81	38007,07
953,24	38914,53
953,67	40150,60
954,11	41088,00
954,54	41921,73
954,97	42525,67
955,40	42734,27
955,83	42702,73
956,27	42444,60
956,70	41746,87
957,13	41131,27
957,56	40600,33
957,99	39643,87
958,43	39161,67
958,86	38854,13
959,29	38568,53
959,72	38513,00
960,15	38484,27
960,58	38736,93
961,02	39222,13
961,45	39862,60
961,88	40527,20
962,31	41223,73
962,74	42023,27
963,17	42525,47
963,61	43210,87
964,04	43481,40
964,47	43533,53
964,90	43228,67
965,33	42492,47
965,76	41802,67
966,19	40796,53
966,62	39856,60
967,06	39106,87
967,49	38366,33
967,92	38129,33
968,35	38108,60
968,78	38340,07
969,21	38151,53
969,64	38091,20
970,07	38159,93
970,50	38336,13
970,93	38595,93
971,37	39066,00
971,80	39388,20
972,23	40017,00
972,66	40567,13
973,09	41138,27
973,52	41334,00
973,95	41292,40
974,38	40872,33
974,81	40187,60
975,24	39428,67
975,67	38472,67
976,10	37743,53
976,53	37148,27
976,96	36682,00
977,39	36342,53
977,82	36283,53
978,26	36227,47
978,69	36390,67
979,12	36769,93
979,55	37198,87
979,98	37761,20
980,41	38115,93
980,84	38490,73
981,27	38971,40
981,70	39427,73
982,13	39454,60
982,56	39472,13
982,99	39444,07
983,42	39391,53
983,85	39044,93
984,28	38841,20
984,71	38471,73
985,14	37803,00
985,57	37110,07
986,00	36462,47
986,43	35827,53
986,86	35136,40
987,29	34566,33
987,72	34416,07
988,15	34265,33
988,57	34307,67
989,00	34503,80
989,43	34665,67
989,86	35014,40
990,29	35329,60
990,72	35884,33
991,15	36332,13
991,58	36711,87
992,01	37025,33
992,44	37054,73
992,87	36734,87
993,30	36515,93
993,73	36056,87
994,16	35528,87
994,59	35017,87
995,02	34469,60
995,44	33835,80
995,87	33303,00
996,30	32756,73
996,73	32528,60
997,16	32175,67
997,59	32113,13
998,02	32044,40
998,45	32054,53
998,88	32211,20
999,31	32298,60
999,73	32724,53
1000,16	32932,13
1000,59	33325,40
1001,02	33695,87
1001,45	33780,60
1001,88	33802,67
1002,31	33806,60
1002,74	33310,80
1003,16	32858,60
1003,59	32209,60
1004,02	31610,87
1004,45	30826,40
1004,88	30274,20
1005,31	29765,80
1005,73	29453,93
1006,16	29009,80
1006,59	28702,80
1007,02	28690,73
1007,45	28639,20
1007,88	28618,27
1008,30	28616,00
1008,73	28643,20
1009,16	28705,87
1009,59	29100,53
1010,02	29019,47
1010,44	29027,60
1010,87	29077,80
1011,30	29099,20
1011,73	29130,07
1012,16	29121,73
1012,58	29013,93
1013,01	28808,53
1013,44	28500,20
1013,87	28030,67
1014,30	27425,87
1014,72	26953,20
1015,15	26359,67
1015,58	26124,87
1016,01	25778,13
1016,43	25678,60
1016,86	25676,40
1017,29	25865,20
1017,72	26030,07
1018,14	27911,33
1018,57	26516,87
1019,00	26605,27
1019,43	27076,33
1019,85	27246,20
1020,28	27408,33
1020,71	27525,67
1021,14	27656,20
1021,56	27850,47
1021,99	27988,47
1022,42	28106,33
1022,84	28068,80
1023,27	28354,60
1023,70	27987,60
1024,13	27688,47
1024,55	27311,20
1024,98	26915,27
1025,41	26617,60
1025,83	26301,20
1026,26	26038,60
1026,69	25846,53
1027,11	25904,27
1027,54	25658,53
1027,97	25567,73
1028,39	25554,87
1028,82	25713,60
1029,25	25843,73
1029,67	26170,73
1030,10	26171,73
1030,53	26265,00
1030,95	26309,47
1031,38	26320,13
1031,81	26034,60
1032,23	25980,40
1032,66	25753,67
1033,09	25413,07
1033,51	25148,20
1033,94	24689,27
1034,37	24236,07
1034,79	23863,60
1035,22	23495,80
1035,64	23040,47
1036,07	22828,67
1036,50	22379,67
1036,92	22129,93
1037,35	21985,13
1037,77	21697,40
1038,20	21717,53
1038,63	21593,93
1039,05	21593,20
1039,48	21631,60
1039,90	21699,80
1040,33	21596,93
1040,76	21640,40
1041,18	21649,47
1041,61	21578,00
1042,03	21598,07
1042,46	21434,53
1042,88	21133,67
1043,31	20943,73
1043,74	20606,73
1044,16	20385,40
1044,59	19977,27
1045,01	19711,73
1045,44	19372,00
1045,86	19041,60
1046,29	18844,87
1046,71	18628,73
1047,14	18276,73
1047,56	18165,07
1047,99	17999,20
1048,42	17771,27
1048,84	17744,33
1049,27	17655,00
1049,69	17608,87
1050,12	17456,20
1050,54	17368,87
1050,97	17413,40
1051,39	17353,93
1051,82	17277,67
1052,24	17178,73
1052,67	17065,20
1053,09	17032,20
1053,52	16805,67
1053,94	16822,67
1054,37	16561,80
1054,79	16492,07
1055,22	16283,60
1055,64	16092,87
1056,06	15944,20
1056,49	15849,00
1056,91	15594,33
1057,34	15371,13
1057,76	15123,33
1058,19	15217,67
1058,61	14694,87
1059,04	14558,67
1059,46	14388,73
1059,89	14150,07
1060,31	13979,33
1060,73	13880,53
1061,16	13801,13
1061,58	13633,40
1062,01	13501,53
1062,43	13511,80
1062,86	13515,27
1063,28	13334,73
1063,70	13232,60
1064,13	13174,60
1064,55	13225,33
1064,98	13148,73
1065,40	12992,20
1065,82	12895,33
1066,25	12787,40
1066,67	12832,27
1067,10	12687,27
1067,52	12544,20
1067,94	12448,80
1068,37	12244,00
1068,79	12267,13
1069,21	11979,53
1069,64	11808,93
1070,06	11610,53
1070,48	11633,33
1070,91	11523,40
1071,33	11392,47
1071,76	11209,60
1072,18	11195,00
1072,60	11039,00
1073,03	10945,80
1073,45	10841,00
1073,87	10937,60
1074,30	10800,73
1074,72	10725,87
1075,14	10742,87
1075,57	10690,27
1075,99	10678,07
1076,41	10624,60
1076,84	10561,07
1077,26	10580,07
1077,68	10594,93
1078,10	10418,67
1078,53	10436,13
1078,95	10391,27
1079,37	10105,80
1079,80	10091,20
1080,22	9915,13
1080,64	9817,33
1081,06	9751,47
1081,49	9596,20
1081,91	9506,27
1082,33	9443,33
1082,76	9330,40
1083,18	9257,20
1083,60	9192,53
1084,02	9129,67
1084,45	9164,73
1084,87	9024,73
1085,29	8953,40
1085,71	9015,67
1086,14	8858,60
1086,56	8832,80
1086,98	8876,93
1087,40	8722,73
1087,83	8838,93
1088,25	11266,53
1088,67	8715,47
1089,09	8630,87
1089,51	8603,33
1089,94	8541,87
1090,36	8568,80
1090,78	8400,40
1091,20	8259,60
1091,62	8210,47
1092,05	8106,20
1092,47	7986,93
1092,89	7942,47
1093,31	7815,93
1093,73	7740,07
1094,16	7672,67
1094,58	7620,33
1095,00	7560,27
1095,42	7507,27
1095,84	7406,13
1096,26	7431,13
1096,69	7393,27
1097,11	7282,00
1097,53	7267,53
1097,95	7228,40
1098,37	7275,00
1098,79	7245,20
1099,22	7211,27
1099,64	7116,47
1100,06	7064,93
1100,48	6993,07
1100,90	6948,73
1101,32	6817,20
1101,74	6787,67
1102,16	6622,87
1102,59	6562,13
1103,01	6517,53
1103,43	6452,53
1103,85	6412,00
1104,27	6323,80
1104,69	6437,60
1105,11	6179,20
1105,53	6307,60
1105,95	6256,07
1106,38	6183,33
1106,80	6198,60
1107,22	6047,07
1107,64	6035,47
1108,06	6119,40
1108,48	5900,13
1108,90	5930,47
1109,32	5851,47
1109,74	5765,93
1110,16	5607,53
1110,58	5618,00
1111,00	5512,47
1111,42	5529,47
1111,84	5463,87
1112,26	5477,33
1112,68	5431,87
1113,11	5432,20
1113,53	5318,87
1113,95	5170,60
1114,37	5151,07
1114,79	5049,33
1115,21	4939,67
1115,63	4959,67
1116,05	4887,13
1116,47	4696,67
1116,89	4508,60
1117,31	4351,80
1117,73	4218,27
1118,15	2156,53
1118,57	2203,00
1118,99	2201,27
1119,41	2202,13
>>>>>End Processed Spectral Data<<<<<
