SpectraSuite Data File
++++++++++++++++++++++++++++++++++++
Date: Tue Oct 14 10:17:42 EEST 2014
User: OO Maya
Dark Spectrum Present: No
Reference Spectrum Present: No
Number of Sampled Component Spectra: 1
Spectrometers: MAYP11278
Integration Time (usec): 600000 (MAYP11278)
Spectra Averaged: 15 (MAYP11278)
Boxcar Smoothing: 0 (MAYP11278)
Correct for Electrical Dark: No (MAYP11278)
Strobe/Lamp Enabled: No (MAYP11278)
Correct for Detector Non-linearity: No (MAYP11278)
Correct for Stray Light: No (MAYP11278)
Number of Pixels in Processed Spectrum: 2068
>>>>>Begin Processed Spectral Data<<<<<
188,14	2314,00
188,62	2229,27
189,09	2199,73
189,57	2200,73
190,05	3294,40
190,53	3412,60
191,01	3463,47
191,49	3512,07
191,97	3586,80
192,44	3521,33
192,92	3492,20
193,40	3460,27
193,88	3520,00
194,36	3517,13
194,84	3543,40
195,31	3492,00
195,79	3579,07
196,27	3493,00
196,75	3506,20
197,23	3689,33
197,70	3501,60
198,18	3473,13
198,66	3518,33
199,14	3482,60
199,62	3549,13
200,09	3575,13
200,57	3503,33
201,05	3510,00
201,53	3577,00
202,01	3567,47
202,48	3562,40
202,96	3458,07
203,44	3548,80
203,92	3468,33
204,40	3569,73
204,87	3604,27
205,35	3509,80
205,83	3490,00
206,31	3615,00
206,78	3510,00
207,26	3544,13
207,74	3697,60
208,22	3535,93
208,69	3579,53
209,17	3501,53
209,65	3589,73
210,13	3572,73
210,60	3523,13
211,08	3527,53
211,56	3570,73
212,04	3529,93
212,51	3487,53
212,99	3648,67
213,47	3563,13
213,95	3502,00
214,42	3651,60
214,90	3556,47
215,38	3627,47
215,85	3561,07
216,33	3572,73
216,81	3572,20
217,29	3584,33
217,76	3499,53
218,24	3533,80
218,72	3614,33
219,19	3457,60
219,67	3487,47
220,15	3490,00
220,62	3536,87
221,10	3696,93
221,58	3501,87
222,05	3598,60
222,53	3512,87
223,01	3602,00
223,49	3533,67
223,96	3606,47
224,44	3541,20
224,92	3520,67
225,39	3496,67
225,87	3542,07
226,35	3504,93
226,82	3534,93
227,30	3618,60
227,77	3521,40
228,25	3594,27
228,73	3598,40
229,20	3598,20
229,68	3543,47
230,16	3561,27
230,63	3526,93
231,11	3592,80
231,59	3625,40
232,06	3542,53
232,54	3555,40
233,02	3497,47
233,49	3548,87
233,97	3570,93
234,44	3786,60
234,92	3579,33
235,40	3514,00
235,87	3513,33
236,35	3486,00
236,82	3610,53
237,30	3693,00
237,78	3519,80
238,25	3555,80
238,73	3563,20
239,20	3565,47
239,68	3540,93
240,16	3466,20
240,63	3611,40
241,11	3637,73
241,58	3563,27
242,06	3532,40
242,53	3615,00
243,01	3639,07
243,49	3496,67
243,96	3513,80
244,44	3620,13
244,91	3657,20
245,39	3542,33
245,86	3638,93
246,34	6489,27
246,82	3449,93
247,29	3573,13
247,77	3561,00
248,24	3580,00
248,72	3589,27
249,19	3466,60
249,67	3563,60
250,14	3613,73
250,62	3590,47
251,09	3650,27
251,57	3573,13
252,04	3701,20
252,52	3650,47
253,00	3543,53
253,47	3644,33
253,95	3582,20
254,42	3552,00
254,90	3572,47
255,37	3582,33
255,85	3631,13
256,32	3540,20
256,80	3573,07
257,27	3596,73
257,75	3625,20
258,22	3774,80
258,70	3585,93
259,17	3543,93
259,65	3587,93
260,12	3610,73
260,59	3677,67
261,07	3563,80
261,54	3555,60
262,02	3668,00
262,49	3527,87
262,97	3595,13
263,44	3574,27
263,92	3501,27
264,39	3628,07
264,87	3640,80
265,34	3552,87
265,82	3574,27
266,29	3606,40
266,76	3627,93
267,24	3563,07
267,71	3580,73
268,19	3600,80
268,66	3619,33
269,14	3482,67
269,61	3519,73
270,09	3544,07
270,56	3608,27
271,03	3652,13
271,51	3536,80
271,98	3581,80
272,46	3503,20
272,93	3517,73
273,40	3465,80
273,88	3593,87
274,35	3811,47
274,83	3619,20
275,30	3630,47
275,78	3549,33
276,25	3570,53
276,72	3617,33
277,20	3617,73
277,67	3506,27
278,14	3553,13
278,62	3498,80
279,09	3817,07
279,57	3525,13
280,04	3514,40
280,51	3823,87
280,99	3676,73
281,46	3841,47
281,93	3600,00
282,41	3709,73
282,88	3592,13
283,36	3600,00
283,83	3625,13
284,30	3552,53
284,78	3528,20
285,25	3635,53
285,72	3585,53
286,20	3613,67
286,67	3619,73
287,14	3518,60
287,62	3619,87
288,09	3691,60
288,56	3587,13
289,04	3647,27
289,51	3494,13
289,98	3693,93
290,46	3544,27
290,93	3621,73
291,40	3561,27
291,88	3620,47
292,35	3738,13
292,82	3543,60
293,29	3659,47
293,77	3548,87
294,24	3633,07
294,71	3619,67
295,19	3557,73
295,66	3608,07
296,13	3616,27
296,61	3715,67
297,08	3724,00
297,55	3653,20
298,02	3626,33
298,50	3622,20
298,97	3564,27
299,44	3701,60
299,91	3585,53
300,39	3635,53
300,86	3560,00
301,33	3663,20
301,81	3658,00
302,28	3657,07
302,75	3544,80
303,22	3664,47
303,70	3657,07
304,17	3570,67
304,64	3588,53
305,11	3556,40
305,58	3613,00
306,06	3626,53
306,53	3617,00
307,00	3659,07
307,47	3555,73
307,95	3579,47
308,42	3602,33
308,89	3576,93
309,36	3659,33
309,83	3668,87
310,31	3641,93
310,78	3627,47
311,25	3644,27
311,72	3586,87
312,20	3697,40
312,67	3614,60
313,14	3751,73
313,61	3573,53
314,08	3593,80
314,56	3623,20
315,03	3580,80
315,50	3569,27
315,97	3666,27
316,44	3653,53
316,91	3621,33
317,39	3663,00
317,86	3627,20
318,33	3811,00
318,80	3616,33
319,27	3609,60
319,74	3545,20
320,22	3662,73
320,69	3744,27
321,16	3687,40
321,63	3623,27
322,10	3537,20
322,57	3564,53
323,04	3740,73
323,52	3603,73
323,99	3802,07
324,46	3543,40
324,93	3637,20
325,40	3615,07
325,87	3627,87
326,34	3625,27
326,82	3630,07
327,29	3680,20
327,76	3679,00
328,23	3696,87
328,70	3667,47
329,17	3632,53
329,64	3626,47
330,11	3620,93
330,58	3603,13
331,05	3691,47
331,53	3672,67
332,00	3764,47
332,47	3608,13
332,94	3790,73
333,41	3726,40
333,88	3722,13
334,35	3771,87
334,82	3695,07
335,29	3715,33
335,76	3933,47
336,23	3610,53
336,70	3676,53
337,18	3652,53
337,65	3688,93
338,12	3654,27
338,59	3643,87
339,06	3763,80
339,53	3712,07
340,00	3586,27
340,47	3592,07
340,94	3601,07
341,41	3677,87
341,88	3728,07
342,35	3611,60
342,82	3657,53
343,29	3690,33
343,76	3655,20
344,23	3598,73
344,70	3617,07
345,17	3568,93
345,64	3624,53
346,11	3669,27
346,58	3585,40
347,05	3569,27
347,52	3710,73
347,99	3571,20
348,46	3685,33
348,93	3623,60
349,40	3526,80
349,87	3609,47
350,34	3649,20
350,81	3605,93
351,28	3569,40
351,75	3617,47
352,22	3717,73
352,69	3611,67
353,16	3583,53
353,63	3606,00
354,10	3635,00
354,57	3612,27
355,04	3629,60
355,51	3620,47
355,98	3714,53
356,45	3552,13
356,92	3718,13
357,39	3551,67
357,86	3748,87
358,33	3648,47
358,80	3532,40
359,27	3544,47
359,74	3563,67
360,21	3572,73
360,68	3663,33
361,14	3704,73
361,61	3593,67
362,08	3590,00
362,55	3610,00
363,02	3580,07
363,49	3593,53
363,96	3758,47
364,43	3632,87
364,90	3554,73
365,37	3644,00
365,84	3589,07
366,31	3535,60
366,77	3613,93
367,24	3605,73
367,71	4768,87
368,18	3498,13
368,65	3556,73
369,12	3672,93
369,59	3539,07
370,06	3670,53
370,53	3616,33
370,99	3582,47
371,46	4402,40
371,93	3614,33
372,40	3559,67
372,87	3506,13
373,34	3587,53
373,81	3630,87
374,27	3524,60
374,74	3554,80
375,21	3639,67
375,68	3516,33
376,15	3715,53
376,62	3583,00
377,09	3553,40
377,55	3535,00
378,02	3622,87
378,49	3619,40
378,96	3576,73
379,43	3594,40
379,90	3603,13
380,36	3634,60
380,83	3695,20
381,30	3601,40
381,77	3698,00
382,24	3695,47
382,71	3516,07
383,17	3612,00
383,64	3590,33
384,11	3675,33
384,58	3614,53
385,05	3960,53
385,51	3600,67
385,98	3588,87
386,45	3584,87
386,92	3714,07
387,39	3539,33
387,85	3519,33
388,32	3665,87
388,79	3606,93
389,26	3673,53
389,72	3549,27
390,19	3629,67
390,66	3604,27
391,13	3616,87
391,59	3619,40
392,06	3591,53
392,53	3614,73
393,00	3578,47
393,46	3583,73
393,93	3752,93
394,40	3584,93
394,87	3668,47
395,33	3544,40
395,80	3645,67
396,27	3921,87
396,74	3513,13
397,20	3639,07
397,67	3633,27
398,14	3531,67
398,61	3591,47
399,07	3565,73
399,54	3540,00
400,01	3657,53
400,47	3534,80
400,94	3589,20
401,41	3567,07
401,88	3646,73
402,34	3635,00
402,81	3661,67
403,28	3633,33
403,74	3839,73
404,21	3817,40
404,68	4005,60
405,14	4150,67
405,61	4261,27
406,08	4286,93
406,54	4559,47
407,01	4744,93
407,48	5033,07
407,95	5066,87
408,41	5242,13
408,88	5424,80
409,35	5478,20
409,81	5765,47
410,28	5756,67
410,74	6010,53
411,21	5978,40
411,68	6228,53
412,14	6216,87
412,61	6212,00
413,08	6417,87
413,54	6443,73
414,01	6553,67
414,48	6633,40
414,94	6752,93
415,41	6687,53
415,88	6867,27
416,34	6847,87
416,81	6881,87
417,27	7023,00
417,74	6987,27
418,21	6996,80
418,67	7060,33
419,14	7125,80
419,60	7232,60
420,07	7146,47
420,54	7313,07
421,00	7232,67
421,47	7335,00
421,93	7370,20
422,40	7490,53
422,87	7451,53
423,33	7525,20
423,80	7602,47
424,26	7697,13
424,73	7701,67
425,19	7788,27
425,66	7772,93
426,13	7928,13
426,59	7816,33
427,06	7983,40
427,52	8003,67
427,99	8072,13
428,45	7990,13
428,92	8158,13
429,38	8178,13
429,85	8178,80
430,32	8273,60
430,78	8501,87
431,25	8264,60
431,71	8382,33
432,18	8545,07
432,64	8553,93
433,11	8526,47
433,57	8607,27
434,04	8658,00
434,50	8685,07
434,97	8819,93
435,43	8729,20
435,90	8913,40
436,36	8928,33
436,83	8905,00
437,29	9085,80
437,76	9081,27
438,22	9150,07
438,69	9131,40
439,15	9211,80
439,62	9531,93
440,08	9353,93
440,55	9433,07
441,01	9499,13
441,48	9420,00
441,94	9511,07
442,41	9729,73
442,87	9581,40
443,34	9685,40
443,80	9746,73
444,27	9713,93
444,73	9954,07
445,20	9942,93
445,66	9932,80
446,12	9986,93
446,59	10101,20
447,05	10085,00
447,52	10183,27
447,98	10201,33
448,45	10223,33
448,91	10356,00
449,38	10415,33
449,84	10419,53
450,30	10459,93
450,77	10501,53
451,23	10608,20
451,70	10705,93
452,16	10811,00
452,63	10764,33
453,09	10960,00
453,55	10929,20
454,02	10997,00
454,48	11058,00
454,95	11153,13
455,41	11163,67
455,87	11262,87
456,34	11352,93
456,80	11335,87
457,27	11542,07
457,73	11457,87
458,19	11541,60
458,66	11552,87
459,12	11675,67
459,58	11696,20
460,05	11816,53
460,51	11837,20
460,98	11853,07
461,44	12082,07
461,90	12125,80
462,37	12052,40
462,83	12141,93
463,29	12293,67
463,76	12266,67
464,22	12376,60
464,68	12403,00
465,15	12422,13
465,61	12529,47
466,07	12640,93
466,54	12630,80
467,00	12734,93
467,46	12796,07
467,93	12856,27
468,39	12927,53
468,85	13016,73
469,32	13030,33
469,78	13062,07
470,24	13189,67
470,71	13245,53
471,17	13275,87
471,63	13337,13
472,10	13398,87
472,56	13470,20
473,02	13563,27
473,48	13731,20
473,95	13707,80
474,41	13736,87
474,87	13848,80
475,34	13864,47
475,80	14004,47
476,26	14048,80
476,72	14114,00
477,19	14163,13
477,65	14248,27
478,11	14419,27
478,58	14424,13
479,04	14498,00
479,50	14474,07
479,96	14719,80
480,43	14708,60
480,89	14739,47
481,35	14757,07
481,81	14904,20
482,28	14990,67
482,74	14966,93
483,20	15079,93
483,66	15127,33
484,13	15205,13
484,59	15410,80
485,05	15381,73
485,51	15452,60
485,97	15427,13
486,44	15582,47
486,90	15592,60
487,36	15757,40
487,82	15690,33
488,29	15810,73
488,75	15932,53
489,21	16029,20
489,67	16113,73
490,13	16241,20
490,60	16216,53
491,06	16363,93
491,52	16334,53
491,98	16490,87
492,44	16510,60
492,90	16718,80
493,37	16729,67
493,83	16802,93
494,29	16841,93
494,75	16884,93
495,21	16977,53
495,67	17048,87
496,14	17165,87
496,60	17253,33
497,06	17311,93
497,52	17518,07
497,98	17536,87
498,44	17534,60
498,91	17620,80
499,37	17674,60
499,83	17962,60
500,29	17860,07
500,75	17909,87
501,21	18025,60
501,67	18093,53
502,14	18201,80
502,60	18264,20
503,06	18332,73
503,52	18399,00
503,98	18515,87
504,44	18557,67
504,90	18659,13
505,36	18760,00
505,82	18765,27
506,29	18899,40
506,75	18997,60
507,21	19037,87
507,67	19160,93
508,13	19220,27
508,59	19236,40
509,05	19300,80
509,51	19330,53
509,97	19473,20
510,43	19539,93
510,89	19599,73
511,35	19806,27
511,82	19886,40
512,28	19837,80
512,74	19869,33
513,20	19990,60
513,66	20172,53
514,12	20114,47
514,58	20378,67
515,04	20472,47
515,50	20394,60
515,96	20600,40
516,42	20723,93
516,88	20807,07
517,34	21022,67
517,80	20945,27
518,26	21023,40
518,72	21328,67
519,18	21227,53
519,64	21301,60
520,10	21322,00
520,56	21458,53
521,02	21649,27
521,48	21755,80
521,94	21874,27
522,40	21920,27
522,86	21930,93
523,32	22197,60
523,78	22295,07
524,24	22255,00
524,70	22526,73
525,16	22517,60
525,62	22580,67
526,08	22771,67
526,54	22795,80
527,00	22874,80
527,46	22937,60
527,92	23066,13
528,38	23251,00
528,84	23305,73
529,30	23335,33
529,76	23382,07
530,22	23560,00
530,68	23670,13
531,14	23683,07
531,60	23894,40
532,06	23921,87
532,52	24037,67
532,98	24125,80
533,44	24256,73
533,90	24315,07
534,36	24333,40
534,82	24509,07
535,28	24550,47
535,73	24694,73
536,19	24717,27
536,65	24891,13
537,11	24965,73
537,57	25115,40
538,03	25181,00
538,49	25255,33
538,95	25509,27
539,41	25533,93
539,87	25922,93
540,33	25568,53
540,79	25803,40
541,24	25834,93
541,70	25863,53
542,16	26045,87
542,62	26130,47
543,08	26137,53
543,54	26445,07
544,00	26263,93
544,46	26587,80
544,91	26572,87
545,37	26572,93
545,83	26665,67
546,29	26838,93
546,75	26910,73
547,21	26944,60
547,67	27030,27
548,13	27121,27
548,58	27203,73
549,04	27276,27
549,50	27336,67
549,96	27688,13
550,42	27602,00
550,88	27655,27
551,33	27867,33
551,79	27904,20
552,25	28132,80
552,71	28088,00
553,17	28119,60
553,63	28301,73
554,08	28266,67
554,54	28359,07
555,00	28555,60
555,46	28649,93
555,92	28849,40
556,37	28913,53
556,83	29043,13
557,29	28972,53
557,75	29175,00
558,21	29370,67
558,66	29305,00
559,12	29397,40
559,58	29448,27
560,04	29600,80
560,50	29654,07
560,95	29802,67
561,41	29860,27
561,87	29974,47
562,33	30082,93
562,78	30077,47
563,24	30239,67
563,70	30410,80
564,16	30376,73
564,61	30566,73
565,07	30560,13
565,53	30629,00
565,99	30722,80
566,44	30917,80
566,90	30890,13
567,36	30926,80
567,82	31088,27
568,27	31197,67
568,73	31176,27
569,19	31261,20
569,65	31357,53
570,10	31412,00
570,56	31470,80
571,02	31565,80
571,47	31616,73
571,93	31679,87
572,39	31749,60
572,85	31870,40
573,30	31849,13
573,76	31954,33
574,22	32074,60
574,67	32188,00
575,13	32267,20
575,59	32252,47
576,04	32393,07
576,50	32356,40
576,96	32619,93
577,42	32663,73
577,87	32684,73
578,33	32724,60
578,79	32972,20
579,24	32954,00
579,70	32962,27
580,16	33153,80
580,61	33189,93
581,07	33244,80
581,53	33305,60
581,98	33396,67
582,44	33476,60
582,89	33506,53
583,35	33690,73
583,81	33759,93
584,26	33855,93
584,72	33997,27
585,18	34017,00
585,63	34357,13
586,09	34248,27
586,55	34345,20
587,00	34455,67
587,46	34678,13
587,91	34798,07
588,37	34736,67
588,83	35004,13
589,28	35024,93
589,74	35201,67
590,19	35307,87
590,65	35518,73
591,11	35511,00
591,56	35605,07
592,02	35825,47
592,47	35915,93
592,93	36027,73
593,39	36113,67
593,84	36225,27
594,30	36269,60
594,75	36413,33
595,21	36637,53
595,66	36575,73
596,12	36650,60
596,58	36930,93
597,03	36968,27
597,49	37013,93
597,94	37020,13
598,40	37046,40
598,85	37231,33
599,31	37533,27
599,76	37508,67
600,22	37754,87
600,67	37845,47
601,13	37901,93
601,59	38012,73
602,04	38022,13
602,50	38317,73
602,95	38258,13
603,41	38320,13
603,86	38304,20
604,32	38448,93
604,77	38561,53
605,23	38622,33
605,68	38718,67
606,14	38760,07
606,59	38770,07
607,05	38960,27
607,50	38913,33
607,96	39048,40
608,41	39128,67
608,87	39243,33
609,32	39504,60
609,78	39484,13
610,23	39543,60
610,69	39594,27
611,14	39806,53
611,60	39860,00
612,05	40173,40
612,50	40208,60
612,96	40303,80
613,41	40619,60
613,87	40497,13
614,32	40625,20
614,78	40702,27
615,23	40889,60
615,69	41027,13
616,14	41130,87
616,59	41194,87
617,05	41333,93
617,50	41414,73
617,96	41603,67
618,41	41663,53
618,87	41772,20
619,32	41911,93
619,77	42056,07
620,23	42158,73
620,68	42339,20
621,14	42495,47
621,59	42605,67
622,05	42676,60
622,50	42827,47
622,95	42913,13
623,41	42867,47
623,86	43042,93
624,32	43214,93
624,77	43201,20
625,22	43379,47
625,68	43511,47
626,13	43609,67
626,58	43670,53
627,04	43868,27
627,49	43898,80
627,95	44041,27
628,40	44142,20
628,85	44094,87
629,31	44298,47
629,76	44357,60
630,21	44398,00
630,67	44548,60
631,12	44624,80
631,57	44731,40
632,03	44738,80
632,48	44891,60
632,93	44879,47
633,39	44968,00
633,84	45006,80
634,29	45055,80
634,75	45183,73
635,20	45242,93
635,65	45317,07
636,11	45327,47
636,56	45504,00
637,01	45624,53
637,47	45605,27
637,92	45739,93
638,37	45767,80
638,83	45837,13
639,28	45890,33
639,73	45892,40
640,18	45985,87
640,64	46156,07
641,09	46363,33
641,54	46257,40
642,00	46367,07
642,45	46417,33
642,90	46405,80
643,35	46631,00
643,81	46749,53
644,26	46744,73
644,71	46846,07
645,17	46841,47
645,62	46906,87
646,07	47005,33
646,52	47137,40
646,98	47254,13
647,43	47347,33
647,88	47366,00
648,33	47372,60
648,79	47424,73
649,24	47654,33
649,69	47683,13
650,14	48050,13
650,59	47775,87
651,05	47748,87
651,50	47801,73
651,95	47929,20
652,40	47967,40
652,86	48107,27
653,31	48168,47
653,76	48276,27
654,21	48321,07
654,66	48462,33
655,12	48411,60
655,57	48347,00
656,02	48510,20
656,47	48501,93
656,92	48719,20
657,38	48801,87
657,83	48887,80
658,28	48900,13
658,73	48944,00
659,18	48886,40
659,63	49341,13
660,09	49075,27
660,54	49246,93
660,99	49328,93
661,44	49359,27
661,89	49366,20
662,34	49401,27
662,80	49296,93
663,25	49476,13
663,70	49539,20
664,15	49689,47
664,60	49741,80
665,05	49719,47
665,50	49806,00
665,96	49788,67
666,41	49879,20
666,86	49936,73
667,31	50160,80
667,76	50200,27
668,21	50211,73
668,66	50345,40
669,11	50307,40
669,56	50526,53
670,02	50287,07
670,47	50415,47
670,92	50699,47
671,37	50655,67
671,82	50829,40
672,27	51016,07
672,72	50867,73
673,17	50935,53
673,62	50981,20
674,07	51107,40
674,52	50962,07
674,98	51098,80
675,43	51078,33
675,88	51215,93
676,33	51350,93
676,78	51394,80
677,23	51289,67
677,68	51360,13
678,13	51577,20
678,58	51407,20
679,03	51534,80
679,48	51696,53
679,93	51784,07
680,38	51889,73
680,83	51874,00
681,28	51680,20
681,73	51648,73
682,18	51825,27
682,63	51965,00
683,08	52133,60
683,53	52347,60
683,98	52376,93
684,43	52332,67
684,89	52265,47
685,34	52213,20
685,79	52292,80
686,24	52328,27
686,69	52412,20
687,14	52544,47
687,59	52626,27
688,04	52719,87
688,49	52707,20
688,93	52830,87
689,38	52686,73
689,83	52622,67
690,28	52725,00
690,73	52692,53
691,18	52705,87
691,63	52710,87
692,08	52571,60
692,53	52725,53
692,98	52894,27
693,43	53089,60
693,88	53191,33
694,33	53358,93
694,78	53451,07
695,23	53830,20
695,68	53654,87
696,13	53608,67
696,58	53760,07
697,03	53538,73
697,48	53482,53
697,93	53471,73
698,38	53502,27
698,82	53628,93
699,27	53828,33
699,72	53889,53
700,17	53998,27
700,62	54171,27
701,07	54089,93
701,52	54200,47
701,97	53736,93
702,42	53919,87
702,87	53891,20
703,32	54035,27
703,76	54275,27
704,21	54401,60
704,66	54381,00
705,11	54492,67
705,56	54333,87
706,01	54229,73
706,46	54023,40
706,91	54209,00
707,36	54254,53
707,80	54562,93
708,25	54763,33
708,70	54829,80
709,15	54698,60
709,60	54572,53
710,05	54422,47
710,50	54376,27
710,94	54431,20
711,39	54661,13
711,84	54807,73
712,29	54931,87
712,74	54940,53
713,19	55011,80
713,63	54769,00
714,08	54756,73
714,53	54777,00
714,98	54742,00
715,43	54794,67
715,87	54817,13
716,32	54976,47
716,77	55032,20
717,22	54932,73
717,67	54816,00
718,12	54814,73
718,56	54756,00
719,01	54550,80
719,46	54568,33
719,91	54726,27
720,35	54902,80
720,80	54900,87
721,25	54905,40
721,70	54740,60
722,15	54812,40
722,59	54616,27
723,04	54478,20
723,49	54341,73
723,94	54494,07
724,38	54428,93
724,83	54645,00
725,28	54664,47
725,73	54751,53
726,17	54878,93
726,62	54859,60
727,07	54880,80
727,52	54645,47
727,96	54735,00
728,41	54753,80
728,86	54721,60
729,31	54897,93
729,75	54959,00
730,20	55281,40
730,65	55289,93
731,09	55488,87
731,54	55500,07
731,99	55454,40
732,44	55478,07
732,88	55278,00
733,33	55478,33
733,78	55626,00
734,22	55845,80
734,67	56150,60
735,12	56266,93
735,57	56374,27
736,01	56713,60
736,46	56478,80
736,91	56381,80
737,35	56408,80
737,80	56371,13
738,25	56414,53
738,69	56484,13
739,14	56653,13
739,59	56798,20
740,03	56989,80
740,48	56978,73
740,93	56885,20
741,37	56848,00
741,82	56877,40
742,26	56745,13
742,71	56677,07
743,16	56640,00
743,60	56613,80
744,05	56776,00
744,50	56939,40
744,94	57084,20
745,39	57020,67
745,84	57140,13
746,28	57051,40
746,73	56773,60
747,17	56546,33
747,62	56335,93
748,07	56474,07
748,51	56523,07
748,96	56650,53
749,40	56774,33
749,85	57040,13
750,30	56950,33
750,74	56925,27
751,19	56837,07
751,63	56755,27
752,08	56579,53
752,53	56440,13
752,97	56561,53
753,42	56359,87
753,86	56543,67
754,31	56628,67
754,75	56846,33
755,20	56884,20
755,64	56818,47
756,09	56742,93
756,54	56439,73
756,98	56190,73
757,43	56334,80
757,87	56154,27
758,32	56253,20
758,76	56353,53
759,21	56406,13
759,65	56513,67
760,10	56499,67
760,54	56398,00
760,99	56134,47
761,43	56035,40
761,88	55910,87
762,33	55749,73
762,77	55810,33
763,22	56207,87
763,66	56547,73
764,11	56807,40
764,55	56901,73
765,00	57063,73
765,44	56962,20
765,89	56714,47
766,33	56422,60
766,77	56225,87
767,22	56100,13
767,66	56260,87
768,11	56482,93
768,55	56897,00
769,00	57231,47
769,44	57659,60
769,89	57744,47
770,33	57746,87
770,78	57743,47
771,22	57517,80
771,67	57371,93
772,11	57225,87
772,56	57045,33
773,00	56914,60
773,44	56853,73
773,89	56932,67
774,33	56863,00
774,78	57209,27
775,22	57412,20
775,67	57685,67
776,11	57900,07
776,55	57789,93
777,00	57658,67
777,44	57461,53
777,89	57154,80
778,33	56947,60
778,77	56753,33
779,22	56739,73
779,66	57009,73
780,11	57123,93
780,55	57257,67
780,99	57592,13
781,44	57545,60
781,88	57426,60
782,33	57367,67
782,77	57008,80
783,21	56663,67
783,66	56428,80
784,10	56127,20
784,55	55875,80
784,99	55871,73
785,43	56061,53
785,88	56235,40
786,32	56480,67
786,76	56823,53
787,21	56948,80
787,65	56686,07
788,09	56422,60
788,54	56114,87
788,98	55774,07
789,42	55560,13
789,87	55261,13
790,31	55151,87
790,75	55027,67
791,20	55254,87
791,64	55666,53
792,08	55871,93
792,53	56017,80
792,97	56111,13
793,41	56267,00
793,86	55694,07
794,30	55155,67
794,74	54508,20
795,18	54116,13
795,63	53967,73
796,07	54074,73
796,51	54267,73
796,96	54610,13
797,40	54887,00
797,84	55015,93
798,28	55189,80
798,73	55203,27
799,17	54883,27
799,61	54402,07
800,06	54077,60
800,50	53498,80
800,94	53279,67
801,38	53199,07
801,83	53312,27
802,27	53439,33
802,71	53932,80
803,15	54422,53
803,60	54607,40
804,04	54684,47
804,48	54583,40
804,92	54261,80
805,37	53808,53
805,81	53257,13
806,25	52711,13
806,69	52295,13
807,13	52456,53
807,58	52405,33
808,02	52689,93
808,46	52999,47
808,90	53473,40
809,34	53861,93
809,79	54115,13
810,23	54195,20
810,67	54204,87
811,11	54058,60
811,55	53871,33
812,00	52981,73
812,44	52541,80
812,88	52340,40
813,32	52134,73
813,76	51917,00
814,21	51916,47
814,65	52237,67
815,09	52870,33
815,53	53369,67
815,97	53690,00
816,41	53770,47
816,85	53824,87
817,30	53719,87
817,74	53401,80
818,18	53018,87
818,62	52311,73
819,06	51967,73
819,50	51735,93
819,94	51453,47
820,39	51595,00
820,83	51720,27
821,27	52186,80
821,71	52526,27
822,15	53132,20
822,59	53274,93
823,03	53496,00
823,47	53516,07
823,92	53106,93
824,36	52861,87
824,80	52416,47
825,24	51992,40
825,68	51647,93
826,12	51427,20
826,56	51352,27
827,00	51460,73
827,44	51840,13
827,88	52280,27
828,32	52769,13
828,77	52896,13
829,21	53058,00
829,65	53155,67
830,09	52830,93
830,53	52696,20
830,97	52176,80
831,41	51761,27
831,85	51177,27
832,29	51002,00
832,73	50960,27
833,17	51356,27
833,61	51927,67
834,05	52409,53
834,49	52869,53
834,93	53304,53
835,37	53247,73
835,81	53051,93
836,25	52486,27
836,69	51941,53
837,13	51257,73
837,57	50912,33
838,01	50590,87
838,45	50501,40
838,89	50784,13
839,33	51057,13
839,77	51583,53
840,21	52286,53
840,65	52823,00
841,09	53428,40
841,53	53502,20
841,97	53384,33
842,41	52967,13
842,85	52512,53
843,29	51714,87
843,73	50953,87
844,17	50378,60
844,61	49961,73
845,05	49988,93
845,49	50280,80
845,93	50748,93
846,37	51399,53
846,81	51961,13
847,25	52621,73
847,69	53303,00
848,13	53581,20
848,57	53668,20
849,01	53503,60
849,45	53454,60
849,89	53049,80
850,32	52342,00
850,76	51710,47
851,20	51283,80
851,64	50715,20
852,08	50457,73
852,52	50307,20
852,96	50394,33
853,40	50746,67
853,84	51411,67
854,28	52181,27
854,72	53183,53
855,16	53623,93
855,59	53849,00
856,03	53692,20
856,47	53334,33
856,91	52600,80
857,35	51737,07
857,79	50768,73
858,23	49995,20
858,67	49835,87
859,10	49596,27
859,54	50092,87
859,98	50808,00
860,42	51608,07
860,86	52296,87
861,30	53053,60
861,74	53445,40
862,17	53544,27
862,61	53461,93
863,05	53260,40
863,49	52555,93
863,93	52074,13
864,37	51156,47
864,80	50678,20
865,24	50361,53
865,68	50277,80
866,12	50503,47
866,56	50703,33
867,00	51201,27
867,43	51738,80
867,87	52534,00
868,31	53091,53
868,75	53393,53
869,19	53550,87
869,62	53249,00
870,06	52584,87
870,50	51559,13
870,94	50287,13
871,38	49473,07
871,81	49048,67
872,25	48820,80
872,69	49043,07
873,13	49580,00
873,56	50276,07
874,00	51363,07
874,44	52138,00
874,88	52753,07
875,31	53081,80
875,75	53383,67
876,19	53166,13
876,63	53112,60
877,06	52386,87
877,50	51562,93
877,94	50842,80
878,38	50115,07
878,81	49459,93
879,25	48937,07
879,69	48872,20
880,13	48793,13
880,56	49016,53
881,00	49759,00
881,44	50796,87
881,87	51908,67
882,31	52872,73
882,75	53627,67
883,19	54053,13
883,62	53977,00
884,06	53447,00
884,50	52729,53
884,93	51917,33
885,37	50974,60
885,81	50217,60
886,24	49190,13
886,68	48671,67
887,12	48571,33
887,55	48420,47
887,99	48837,73
888,43	49414,33
888,86	50093,33
889,30	51138,13
889,74	51551,47
890,17	52239,80
890,61	52907,93
891,05	53607,80
891,48	54048,33
891,92	53949,67
892,36	53276,87
892,79	52262,40
893,23	51145,27
893,67	50305,00
894,10	49644,53
894,54	48974,60
894,97	48837,40
895,41	48694,00
895,85	48980,73
896,28	49696,33
896,72	50762,73
897,16	51631,73
897,59	52462,33
898,03	53465,27
898,46	54234,80
898,90	54575,20
899,34	54210,33
899,77	53720,80
900,21	52812,73
900,64	52033,07
901,08	50943,33
901,51	49848,80
901,95	49023,33
902,39	48587,27
902,82	48172,73
903,26	48118,87
903,69	48700,07
904,13	49035,00
904,56	49472,67
905,00	49935,27
905,43	50524,07
905,87	51127,67
906,31	51675,87
906,74	51997,93
907,18	52632,33
907,61	52853,73
908,05	52634,53
908,48	52240,47
908,92	51493,13
909,35	50590,87
909,79	49520,53
910,22	48594,87
910,66	48068,80
911,09	47874,53
911,53	47954,60
911,96	48274,47
912,40	49161,60
912,83	50130,53
913,27	51198,80
913,70	52186,67
914,14	53047,20
914,57	53667,00
915,01	53705,73
915,44	53126,07
915,88	51956,00
916,31	50567,40
916,75	49206,27
917,18	48429,87
917,62	47943,20
918,05	47954,00
918,49	48148,13
918,92	48272,60
919,35	48592,73
919,79	49453,07
920,22	49772,73
920,66	50287,87
921,09	51116,40
921,53	51744,13
921,96	52372,60
922,40	52602,47
922,83	52792,60
923,26	52610,67
923,70	52262,93
924,13	51544,87
924,57	50683,20
925,00	49935,53
925,44	48773,93
925,87	47861,40
926,30	47006,13
926,74	46227,53
927,17	46362,20
927,61	46551,47
928,04	47183,27
928,47	47612,40
928,91	48204,33
929,34	49138,00
929,77	49810,40
930,21	50297,13
930,64	50403,47
931,08	50132,73
931,51	49554,07
931,94	48476,87
932,38	47630,87
932,81	46680,00
933,24	45555,67
933,68	44259,47
934,11	43337,67
934,54	42756,60
934,98	42454,20
935,41	42289,93
935,84	42135,53
936,28	42342,80
936,71	42494,53
937,14	42966,20
937,58	43219,93
938,01	43304,60
938,44	43066,93
938,88	42604,60
939,31	41739,07
939,74	40571,80
940,18	39508,53
940,61	38369,60
941,04	37339,53
941,48	36271,00
941,91	35590,00
942,34	35050,40
942,77	34815,73
943,21	34988,87
943,64	35151,47
944,07	35342,47
944,51	35809,07
944,94	36298,67
945,37	36723,87
945,80	37033,87
946,24	37598,07
946,67	38208,53
947,10	38771,33
947,53	38944,93
947,97	39001,40
948,40	38973,93
948,83	38599,20
949,26	38053,87
949,70	37509,47
950,13	37146,00
950,56	36611,07
950,99	36155,53
951,43	35984,80
951,86	36206,20
952,29	36600,00
952,72	37563,73
953,15	38422,13
953,59	39566,13
954,02	40503,73
954,45	41325,47
954,88	41880,00
955,31	42083,53
955,75	42045,33
956,18	41722,60
956,61	41132,60
957,04	40487,13
957,47	39965,20
957,91	39067,47
958,34	38563,80
958,77	38256,40
959,20	37961,27
959,63	37852,33
960,06	37762,33
960,50	38044,00
960,93	38526,33
961,36	39077,13
961,79	39749,27
962,22	40404,87
962,65	41145,40
963,09	41638,93
963,52	42348,07
963,95	42551,07
964,38	42579,47
964,81	42214,00
965,24	41626,33
965,67	41001,93
966,10	39941,60
966,54	39078,00
966,97	38360,60
967,40	37624,27
967,83	37364,80
968,26	37316,73
968,69	37467,67
969,12	37348,47
969,55	37287,47
969,98	37270,80
970,42	37441,07
970,85	37707,73
971,28	38146,13
971,71	38442,73
972,14	39054,00
972,57	39547,87
973,00	40111,07
973,43	40259,47
973,86	40278,60
974,29	39909,87
974,72	39157,33
975,15	38391,53
975,58	37551,60
976,01	36846,00
976,45	36184,80
976,88	35798,27
977,31	35451,87
977,74	35281,20
978,17	35257,07
978,60	35465,80
979,03	35752,47
979,46	36184,47
979,89	36758,27
980,32	37100,73
980,75	37403,73
981,18	37883,60
981,61	38288,13
982,04	38312,47
982,47	38294,53
982,90	38302,53
983,33	38299,33
983,76	37893,80
984,19	37717,07
984,62	37437,60
985,05	36690,33
985,48	36086,87
985,91	35399,07
986,34	34861,40
986,77	34176,87
987,20	33610,80
987,63	33483,93
988,06	33283,73
988,49	33324,13
988,92	33444,13
989,35	33633,27
989,78	33960,53
990,20	34292,73
990,63	34818,07
991,06	35233,47
991,49	35556,13
991,92	35933,33
992,35	35831,53
992,78	35636,00
993,21	35378,47
993,64	34926,67
994,07	34503,20
994,50	33911,47
994,93	33368,87
995,36	32807,27
995,79	32220,47
996,21	31756,53
996,64	31495,13
997,07	31240,47
997,50	31163,47
997,93	31054,73
998,36	31090,27
998,79	31215,07
999,22	31305,40
999,65	31665,13
1000,07	31854,00
1000,50	32266,00
1000,93	32619,73
1001,36	32630,33
1001,79	32732,07
1002,22	32651,80
1002,65	32255,60
1003,08	31845,80
1003,50	31203,33
1003,93	30540,80
1004,36	29866,80
1004,79	29338,53
1005,22	28800,00
1005,65	28512,80
1006,07	28118,47
1006,50	27806,67
1006,93	27758,13
1007,36	27732,27
1007,79	27624,20
1008,22	27664,60
1008,64	27736,47
1009,07	27776,80
1009,50	28122,47
1009,93	28058,73
1010,36	28037,80
1010,78	28078,07
1011,21	28150,40
1011,64	28151,00
1012,07	28079,33
1012,50	27977,27
1012,92	27763,93
1013,35	27501,67
1013,78	27105,07
1014,21	26431,13
1014,64	26085,07
1015,06	25423,67
1015,49	25213,67
1015,92	24863,67
1016,35	24804,47
1016,77	24762,00
1017,20	24924,13
1017,63	25073,87
1018,06	26595,73
1018,48	25531,53
1018,91	25646,60
1019,34	26135,47
1019,77	26207,60
1020,19	26394,53
1020,62	26526,00
1021,05	26624,13
1021,47	26788,87
1021,90	26889,73
1022,33	27002,67
1022,76	26952,73
1023,18	27282,67
1023,61	26889,13
1024,04	26558,40
1024,46	26217,27
1024,89	25897,00
1025,32	25594,40
1025,75	25322,53
1026,17	25034,33
1026,60	24844,53
1027,03	24985,33
1027,45	24682,53
1027,88	24573,47
1028,31	24575,00
1028,73	24729,13
1029,16	24840,20
1029,59	25187,67
1030,01	25132,53
1030,44	25216,87
1030,87	25265,80
1031,29	25289,20
1031,72	25014,33
1032,15	24951,07
1032,57	24755,13
1033,00	24424,53
1033,42	24161,00
1033,85	23712,47
1034,28	23299,73
1034,70	22950,67
1035,13	22598,87
1035,56	22125,13
1035,98	21935,73
1036,41	21538,13
1036,83	21303,13
1037,26	21146,13
1037,69	20872,60
1038,11	20813,47
1038,54	20779,40
1038,96	20754,67
1039,39	20789,87
1039,82	20832,93
1040,24	20768,80
1040,67	20805,73
1041,09	20806,33
1041,52	20729,20
1041,95	20769,73
1042,37	20572,13
1042,80	20339,20
1043,22	20090,20
1043,65	19769,33
1044,07	19519,33
1044,50	19140,53
1044,92	18921,13
1045,35	18599,60
1045,78	18286,07
1046,20	18098,13
1046,63	17894,87
1047,05	17512,87
1047,48	17399,20
1047,90	17274,80
1048,33	17068,60
1048,75	17062,27
1049,18	16914,73
1049,60	16891,40
1050,03	16736,80
1050,45	16708,67
1050,88	16666,47
1051,30	16649,93
1051,73	16636,93
1052,15	16532,80
1052,58	16374,20
1053,00	16365,00
1053,43	16135,47
1053,85	16095,33
1054,28	15900,80
1054,70	15834,53
1055,13	15597,00
1055,55	15506,33
1055,98	15284,87
1056,40	15206,13
1056,83	14952,93
1057,25	14786,33
1057,68	14509,33
1058,10	14577,07
1058,52	14086,40
1058,95	13960,47
1059,37	13819,80
1059,80	13562,73
1060,22	13452,27
1060,65	13282,93
1061,07	13248,87
1061,50	13088,20
1061,92	12990,53
1062,34	12946,67
1062,77	12923,33
1063,19	12810,27
1063,62	12719,53
1064,04	12620,40
1064,46	12695,20
1064,89	12617,80
1065,31	12480,93
1065,74	12344,60
1066,16	12283,53
1066,58	12304,27
1067,01	12157,93
1067,43	12015,13
1067,86	11924,60
1068,28	11747,27
1068,70	11783,67
1069,13	11471,87
1069,55	11310,07
1069,97	11138,93
1070,40	11183,67
1070,82	11067,13
1071,25	10961,00
1071,67	10782,53
1072,09	10744,73
1072,52	10608,93
1072,94	10497,47
1073,36	10432,33
1073,79	10500,00
1074,21	10371,07
1074,63	10299,47
1075,06	10289,53
1075,48	10270,33
1075,90	10251,47
1076,33	10195,00
1076,75	10167,13
1077,17	10150,27
1077,59	10163,53
1078,02	10007,33
1078,44	10026,00
1078,86	9995,33
1079,29	9685,60
1079,71	9680,93
1080,13	9552,07
1080,56	9437,47
1080,98	9373,40
1081,40	9250,53
1081,82	9122,00
1082,25	9077,13
1082,67	8965,67
1083,09	8909,33
1083,51	8817,80
1083,94	8779,60
1084,36	8792,27
1084,78	8665,80
1085,21	8616,73
1085,63	8681,00
1086,05	8496,27
1086,47	8507,00
1086,89	8526,33
1087,32	8389,73
1087,74	8466,33
1088,16	10949,73
1088,58	8376,67
1089,01	8286,80
1089,43	8274,47
1089,85	8202,00
1090,27	8230,47
1090,69	8081,80
1091,12	7955,87
1091,54	7892,53
1091,96	7804,27
1092,38	7684,20
1092,80	7641,53
1093,23	7529,13
1093,65	7478,80
1094,07	7389,40
1094,49	7333,13
1094,91	7270,53
1095,34	7232,40
1095,76	7141,80
1096,18	7141,20
1096,60	7108,60
1097,02	6999,67
1097,44	7037,93
1097,87	6975,00
1098,29	7005,73
1098,71	6970,27
1099,13	6940,40
1099,55	6851,07
1099,97	6815,73
1100,39	6735,47
1100,82	6684,93
1101,24	6574,93
1101,66	6535,80
1102,08	6389,47
1102,50	6312,67
1102,92	6274,67
1103,34	6218,53
1103,76	6194,20
1104,19	6757,60
1104,61	6190,33
1105,03	5961,47
1105,45	6069,73
1105,87	6040,93
1106,29	5976,93
1106,71	5981,07
1107,13	5862,47
1107,55	5839,00
1107,97	5931,60
1108,39	5705,93
1108,82	5743,67
1109,24	5659,20
1109,66	5576,47
1110,08	5418,80
1110,50	5441,00
1110,92	5338,20
1111,34	5374,00
1111,76	5289,73
1112,18	5299,20
1112,60	5238,07
1113,02	5259,40
1113,44	5152,07
1113,86	5025,47
1114,28	4988,20
1114,70	4914,33
1115,12	4799,40
1115,54	4824,93
1115,96	4742,07
1116,38	4583,47
1116,80	4422,07
1117,22	4225,73
1117,64	4142,40
1118,06	2156,47
1118,48	2203,33
1118,90	2201,00
1119,32	2201,13
>>>>>End Processed Spectral Data<<<<<
