SpectraSuite Data File
++++++++++++++++++++++++++++++++++++
Date: Mon Oct 13 13:38:12 EEST 2014
User: OO Maya
Dark Spectrum Present: No
Reference Spectrum Present: No
Number of Sampled Component Spectra: 1
Spectrometers: MAYP11278
Integration Time (usec): 600000 (MAYP11278)
Spectra Averaged: 15 (MAYP11278)
Boxcar Smoothing: 0 (MAYP11278)
Correct for Electrical Dark: No (MAYP11278)
Strobe/Lamp Enabled: No (MAYP11278)
Correct for Detector Non-linearity: No (MAYP11278)
Correct for Stray Light: No (MAYP11278)
Number of Pixels in Processed Spectrum: 2068
>>>>>Begin Processed Spectral Data<<<<<
188,22	2313,60
188,70	2225,67
189,18	2196,00
189,66	2197,53
190,13	3310,47
190,61	3433,60
191,09	3462,87
191,57	3520,60
192,05	3590,73
192,53	3511,20
193,00	3495,60
193,48	3453,60
193,96	3523,80
194,44	3521,93
194,92	3548,73
195,40	3499,20
195,87	3573,33
196,35	3501,13
196,83	3508,07
197,31	3690,33
197,79	3512,60
198,26	3471,80
198,74	3503,73
199,22	3486,13
199,70	3552,53
200,18	3569,93
200,65	3500,60
201,13	3512,60
201,61	3581,80
202,09	3574,60
202,56	3556,73
203,04	3463,67
203,52	3542,67
204,00	3474,53
204,47	3587,87
204,95	3611,20
205,43	3495,87
205,91	3495,80
206,39	3627,00
206,86	3507,67
207,34	3558,27
207,82	3696,60
208,30	3541,00
208,77	3584,07
209,25	3521,27
209,73	3593,80
210,20	3575,93
210,68	3545,07
211,16	3524,20
211,64	3573,33
212,11	3530,73
212,59	3502,00
213,07	3656,67
213,55	3567,20
214,02	3506,20
214,50	3653,20
214,98	3545,20
215,45	3636,20
215,93	3564,67
216,41	3585,27
216,89	3578,67
217,36	3575,80
217,84	3505,00
218,32	3532,87
218,79	3624,60
219,27	3452,53
219,75	3496,87
220,22	3501,80
220,70	3547,60
221,18	3693,07
221,65	3521,87
222,13	3607,73
222,61	3513,60
223,08	3607,93
223,56	3528,33
224,04	3593,33
224,51	3544,40
224,99	3530,00
225,47	3488,60
225,94	3546,40
226,42	3505,13
226,90	3557,53
227,37	3619,40
227,85	3536,80
228,33	3593,40
228,80	3596,60
229,28	3607,07
229,76	3540,67
230,23	3562,00
230,71	3516,93
231,18	3590,80
231,66	3631,27
232,14	3563,53
232,61	3567,00
233,09	3495,93
233,57	3555,47
234,04	3582,00
234,52	3790,27
234,99	3582,47
235,47	3528,27
235,95	3517,60
236,42	3499,27
236,90	3609,20
237,37	3695,60
237,85	3520,87
238,33	3564,93
238,80	3554,13
239,28	3560,27
239,75	3561,60
240,23	3476,87
240,70	3605,13
241,18	3640,20
241,66	3570,27
242,13	3544,40
242,61	3627,13
243,08	3650,67
243,56	3509,80
244,03	3506,13
244,51	3609,60
244,99	3649,20
245,46	3548,93
245,94	3634,53
246,41	6750,93
246,89	3456,20
247,36	3574,00
247,84	3549,67
248,31	3583,67
248,79	3582,47
249,26	3476,53
249,74	3577,07
250,22	3618,87
250,69	3592,33
251,17	3657,93
251,64	3569,60
252,12	3715,47
252,59	3648,73
253,07	3543,40
253,54	3652,13
254,02	3582,73
254,49	3569,47
254,97	3595,00
255,44	3604,40
255,92	3644,40
256,39	3543,47
256,87	3593,73
257,34	3592,07
257,82	3642,93
258,29	3778,27
258,77	3596,07
259,24	3546,27
259,72	3596,13
260,19	3618,40
260,67	3682,40
261,14	3565,27
261,61	3550,27
262,09	3667,47
262,56	3541,87
263,04	3616,80
263,51	3586,27
263,99	3514,80
264,46	3645,40
264,94	3650,40
265,41	3566,60
265,89	3598,40
266,36	3611,27
266,83	3657,80
267,31	3573,53
267,78	3589,13
268,26	3617,40
268,73	3618,87
269,21	3508,40
269,68	3541,40
270,15	3563,20
270,63	3626,47
271,10	3657,13
271,58	3571,80
272,05	3605,93
272,53	3517,07
273,00	3525,33
273,47	3489,00
273,95	3616,47
274,42	3836,47
274,90	3632,33
275,37	3657,13
275,84	3558,60
276,32	3596,53
276,79	3636,07
277,26	3638,00
277,74	3531,13
278,21	3566,67
278,69	3509,53
279,16	3837,53
279,63	3539,47
280,11	3528,47
280,58	3854,60
281,05	3716,53
281,53	3880,87
282,00	3633,87
282,48	3735,67
282,95	3641,87
283,42	3639,67
283,90	3652,00
284,37	3585,33
284,84	3565,20
285,32	3672,00
285,79	3630,00
286,26	3650,27
286,74	3659,53
287,21	3553,67
287,68	3658,93
288,16	3736,87
288,63	3629,13
289,10	3686,73
289,58	3540,33
290,05	3754,73
290,52	3600,87
291,00	3660,93
291,47	3601,73
291,94	3671,40
292,41	3791,20
292,89	3596,93
293,36	3724,20
293,83	3609,80
294,31	3694,20
294,78	3677,33
295,25	3621,87
295,73	3670,73
296,20	3697,67
296,67	3792,60
297,14	3778,73
297,62	3718,00
298,09	3709,27
298,56	3714,00
299,03	3640,33
299,51	3776,47
299,98	3653,53
300,45	3712,27
300,92	3640,80
301,40	3752,47
301,87	3733,33
302,34	3734,73
302,82	3647,60
303,29	3746,60
303,76	3760,20
304,23	3662,20
304,70	3686,93
305,18	3668,20
305,65	3728,60
306,12	3744,20
306,59	3743,47
307,07	3761,27
307,54	3685,47
308,01	3701,20
308,48	3730,87
308,95	3703,13
309,43	3785,13
309,90	3797,13
310,37	3769,87
310,84	3766,33
311,32	3788,93
311,79	3733,87
312,26	3832,27
312,73	3758,60
313,20	3898,60
313,68	3706,20
314,15	3743,40
314,62	3772,27
315,09	3747,73
315,56	3730,27
316,03	3841,20
316,51	3819,47
316,98	3795,33
317,45	3828,27
317,92	3808,67
318,39	3995,33
318,86	3794,33
319,34	3802,53
319,81	3745,40
320,28	3859,60
320,75	3952,07
321,22	3896,20
321,69	3837,20
322,16	3737,00
322,64	3785,40
323,11	3958,00
323,58	3818,53
324,05	4011,47
324,52	3749,47
324,99	3856,67
325,46	3839,27
325,94	3849,07
326,41	3868,93
326,88	3883,40
327,35	3964,47
327,82	3943,93
328,29	3955,60
328,76	3935,80
329,23	3893,07
329,70	3900,07
330,18	3893,53
330,65	3874,40
331,12	3961,13
331,59	3925,93
332,06	4022,47
332,53	3866,67
333,00	4075,33
333,47	4033,87
333,94	4043,60
334,41	4112,40
334,88	4024,73
335,35	4069,00
335,83	4312,33
336,30	4006,73
336,77	4077,53
337,24	4038,20
337,71	4064,47
338,18	4025,93
338,65	4048,00
339,12	4155,00
339,59	4107,67
340,06	3996,67
340,53	4004,40
341,00	4014,07
341,47	4094,20
341,94	4158,07
342,41	4053,33
342,88	4093,80
343,35	4127,60
343,82	4098,87
344,29	4059,53
344,76	4091,13
345,23	4047,87
345,70	4085,87
346,17	4152,73
346,64	4065,13
347,11	4055,33
347,58	4215,20
348,05	4074,33
348,52	4207,47
348,99	4140,60
349,46	4056,40
349,93	4143,60
350,40	4204,67
350,87	4157,60
351,34	4118,67
351,81	4190,13
352,28	4288,27
352,75	4187,13
353,22	4165,80
353,69	4192,67
354,16	4219,87
354,63	4214,53
355,10	4242,80
355,57	4214,07
356,04	4321,27
356,51	4185,60
356,98	4336,20
357,45	4176,87
357,92	4399,53
358,39	4288,20
358,86	4183,73
359,33	4227,13
359,80	4254,07
360,27	4253,00
360,74	4352,47
361,20	4388,40
361,67	4287,47
362,14	4316,53
362,61	4313,80
363,08	4310,53
363,55	4341,53
364,02	4487,33
364,49	4388,40
364,96	4322,80
365,43	4411,80
365,90	4349,93
366,37	4326,40
366,83	4421,07
367,30	4420,87
367,77	5498,60
368,24	4333,00
368,71	4407,40
369,18	4529,00
369,65	4398,33
370,12	4541,60
370,59	4506,93
371,05	4476,93
371,52	5363,47
371,99	4525,20
372,46	4495,40
372,93	4472,60
373,40	4582,47
373,87	4601,53
374,33	4544,53
374,80	4560,13
375,27	4660,53
375,74	4568,87
376,21	4774,80
376,68	4662,93
377,15	4645,20
377,61	4654,33
378,08	4779,87
378,55	4777,07
379,02	4771,07
379,49	4809,93
379,96	4816,93
380,42	4867,73
380,89	4966,53
381,36	4884,33
381,83	5000,53
382,30	5027,60
382,76	4870,47
383,23	4992,13
383,70	4959,33
384,17	5074,60
384,64	5045,93
385,10	5415,27
385,57	5085,87
386,04	5075,80
386,51	5114,93
386,98	5280,60
387,44	5131,87
387,91	5120,67
388,38	5275,00
388,85	5264,07
389,31	5333,27
389,78	5254,80
390,25	5356,67
390,72	5347,20
391,19	5411,33
391,65	5413,07
392,12	5430,40
392,59	5465,67
393,06	5461,13
393,52	5495,53
393,99	5696,13
394,46	5571,47
394,93	5668,00
395,39	5598,47
395,86	5706,87
396,33	6033,20
396,80	5620,20
397,26	5767,47
397,73	5834,53
398,20	5748,73
398,66	5832,27
399,13	5817,80
399,60	5833,27
400,07	5995,67
400,53	5888,40
401,00	5965,60
401,47	5997,07
401,93	6073,67
402,40	6120,53
402,87	6128,87
403,34	6110,73
403,80	6290,80
404,27	6206,80
404,74	6336,27
405,20	6410,40
405,67	6396,60
406,14	6282,20
406,60	6428,80
407,07	6462,00
407,54	6588,67
408,00	6482,47
408,47	6539,13
408,94	6585,60
409,40	6515,47
409,87	6693,53
410,34	6605,47
410,80	6780,47
411,27	6678,80
411,74	6866,80
412,20	6767,47
412,67	6748,87
413,14	6918,73
413,60	6893,53
414,07	6970,53
414,53	7057,73
415,00	7150,07
415,47	7047,07
415,93	7200,07
416,40	7157,00
416,87	7160,13
417,33	7323,60
417,80	7286,67
418,26	7281,00
418,73	7329,73
419,20	7358,80
419,66	7455,60
420,13	7381,93
420,59	7539,07
421,06	7452,53
421,53	7558,00
421,99	7574,13
422,46	7668,20
422,92	7652,87
423,39	7710,20
423,86	7795,87
424,32	7849,27
424,79	7865,13
425,25	7948,93
425,72	7957,07
426,18	8058,67
426,65	7991,60
427,11	8130,67
427,58	8152,07
428,05	8218,60
428,51	8150,00
428,98	8296,13
429,44	8326,27
429,91	8329,07
430,37	8420,00
430,84	8648,67
431,30	8412,60
431,77	8508,93
432,23	8701,73
432,70	8683,07
433,17	8638,93
433,63	8684,40
434,10	8781,13
434,56	8812,87
435,03	8930,87
435,49	8880,53
435,96	9047,07
436,42	9050,80
436,89	9006,00
437,35	9168,67
437,82	9194,07
438,28	9214,67
438,75	9216,60
439,21	9304,60
439,68	9638,13
440,14	9446,00
440,61	9531,80
441,07	9597,80
441,54	9540,53
442,00	9591,07
442,47	9859,53
442,93	9673,60
443,39	9781,93
443,86	9850,33
444,32	9802,00
444,79	10037,00
445,25	10016,67
445,72	10061,60
446,18	10083,67
446,65	10167,87
447,11	10156,93
447,58	10247,00
448,04	10254,13
448,50	10300,73
448,97	10447,80
449,43	10489,47
449,90	10503,40
450,36	10512,00
450,83	10579,13
451,29	10665,53
451,75	10765,07
452,22	10879,00
452,68	10830,47
453,15	10998,87
453,61	10985,93
454,08	11068,93
454,54	11126,60
455,00	11246,20
455,47	11198,53
455,93	11307,07
456,40	11392,73
456,86	11372,40
457,32	11534,07
457,79	11558,80
458,25	11577,27
458,71	11599,60
459,18	11752,07
459,64	11751,93
460,11	11859,00
460,57	11882,13
461,03	11908,07
461,50	12155,67
461,96	12134,27
462,42	12096,67
462,89	12157,40
463,35	12356,47
463,81	12291,87
464,28	12402,80
464,74	12453,00
465,21	12472,47
465,67	12513,47
466,13	12698,47
466,60	12682,87
467,06	12783,40
467,52	12848,07
467,99	12863,80
468,45	12973,20
468,91	13036,93
469,37	13074,20
469,84	13109,80
470,30	13229,13
470,76	13271,13
471,23	13291,33
471,69	13378,60
472,15	13396,87
472,62	13535,27
473,08	13585,20
473,54	13759,87
474,01	13721,60
474,47	13741,33
474,93	13850,20
475,39	13896,47
475,86	13999,33
476,32	14042,73
476,78	14128,00
477,25	14165,07
477,71	14242,20
478,17	14390,47
478,63	14399,40
479,10	14548,13
479,56	14450,73
480,02	14717,33
480,48	14656,20
480,95	14776,73
481,41	14766,53
481,87	14904,80
482,33	14985,40
482,80	14977,33
483,26	15053,93
483,72	15128,40
484,18	15209,60
484,65	15405,73
485,11	15381,13
485,57	15423,00
486,03	15414,47
486,49	15554,53
486,96	15539,27
487,42	15774,93
487,88	15733,67
488,34	15800,73
488,80	15918,00
489,27	16044,80
489,73	16103,07
490,19	16244,93
490,65	16167,80
491,11	16320,80
491,58	16305,67
492,04	16469,20
492,50	16506,20
492,96	16702,60
493,42	16688,87
493,89	16791,20
494,35	16763,67
494,81	16895,53
495,27	16938,40
495,73	16994,00
496,19	17133,93
496,66	17186,07
497,12	17297,93
497,58	17491,80
498,04	17503,60
498,50	17448,13
498,96	17605,80
499,43	17635,47
499,89	17902,07
500,35	17823,20
500,81	17863,13
501,27	17999,07
501,73	18071,00
502,19	18198,60
502,65	18202,47
503,12	18270,93
503,58	18398,87
504,04	18499,67
504,50	18519,07
504,96	18680,87
505,42	18711,87
505,88	18736,40
506,34	18846,20
506,80	18976,00
507,27	18998,67
507,73	19095,13
508,19	19201,07
508,65	19195,40
509,11	19261,27
509,57	19276,27
510,03	19449,53
510,49	19534,27
510,95	19569,53
511,41	19751,40
511,87	19869,60
512,33	19804,33
512,80	19859,33
513,26	19955,73
513,72	20128,87
514,18	20109,93
514,64	20321,07
515,10	20487,47
515,56	20340,33
516,02	20552,60
516,48	20678,27
516,94	20766,40
517,40	20934,87
517,86	20919,67
518,32	21006,33
518,78	21320,07
519,24	21236,27
519,70	21282,53
520,16	21307,93
520,62	21424,20
521,08	21607,27
521,54	21753,93
522,00	21823,53
522,46	21909,33
522,92	21942,27
523,38	22247,13
523,84	22270,07
524,30	22290,93
524,76	22553,73
525,22	22547,13
525,68	22582,73
526,14	22787,13
526,60	22767,53
527,06	22879,73
527,52	22953,60
527,98	23065,53
528,44	23206,00
528,90	23269,33
529,36	23359,33
529,82	23365,93
530,28	23526,60
530,74	23618,67
531,20	23599,87
531,66	23847,33
532,12	23888,40
532,58	23957,67
533,04	24037,40
533,50	24176,27
533,96	24200,00
534,42	24246,47
534,88	24392,87
535,33	24433,47
535,79	24562,67
536,25	24625,47
536,71	24811,20
537,17	24799,20
537,63	25023,20
538,09	25055,93
538,55	25169,47
539,01	25368,93
539,47	25348,13
539,93	25816,93
540,39	25406,13
540,84	25695,00
541,30	25693,20
541,76	25726,87
542,22	25935,53
542,68	25981,13
543,14	26026,40
543,60	26294,80
544,06	26106,67
544,52	26411,07
544,97	26436,07
545,43	26468,33
545,89	26553,47
546,35	26710,47
546,81	26717,80
547,27	26818,47
547,73	26880,07
548,19	26932,07
548,64	27059,47
549,10	27134,53
549,56	27225,67
550,02	27540,20
550,48	27471,20
550,94	27462,67
551,39	27684,07
551,85	27737,93
552,31	27967,47
552,77	27897,80
553,23	27944,20
553,69	28064,93
554,14	28145,13
554,60	28153,47
555,06	28326,67
555,52	28430,47
555,98	28672,33
556,43	28678,67
556,89	28847,67
557,35	28814,87
557,81	28992,07
558,27	29167,80
558,72	29096,20
559,18	29250,00
559,64	29289,60
560,10	29384,20
560,56	29451,27
561,01	29633,27
561,47	29702,07
561,93	29817,80
562,39	29879,13
562,85	29923,40
563,30	30079,00
563,76	30230,93
564,22	30174,40
564,68	30373,67
565,13	30404,87
565,59	30520,33
566,05	30613,40
566,51	30799,00
566,96	30775,53
567,42	30849,40
567,88	31009,53
568,34	31120,20
568,79	31131,47
569,25	31272,73
569,71	31384,40
570,16	31460,53
570,62	31544,80
571,08	31630,80
571,54	31784,07
571,99	31782,80
572,45	31965,33
572,91	32021,00
573,36	32054,40
573,82	32160,40
574,28	32243,40
574,74	32483,80
575,19	32527,73
575,65	32448,40
576,11	32692,00
576,56	32601,20
577,02	32885,87
577,48	32864,67
577,93	33002,20
578,39	33024,40
578,85	33300,80
579,30	33303,80
579,76	33364,60
580,22	33514,53
580,67	33609,47
581,13	33655,73
581,59	33714,13
582,04	33854,27
582,50	33913,80
582,96	33975,07
583,41	34129,73
583,87	34219,27
584,33	34321,73
584,78	34431,87
585,24	34436,53
585,69	34717,33
586,15	34606,07
586,61	34701,13
587,06	34766,47
587,52	34892,73
587,98	35073,67
588,43	34977,00
588,89	35140,60
589,34	35228,40
589,80	35359,47
590,26	35441,53
590,71	35611,87
591,17	35654,67
591,62	35633,20
592,08	35889,93
592,54	35878,60
592,99	35999,60
593,45	36056,47
593,90	36168,13
594,36	36196,73
594,81	36238,47
595,27	36447,07
595,73	36405,40
596,18	36498,67
596,64	36718,33
597,09	36694,40
597,55	36795,60
598,00	36801,53
598,46	36750,93
598,92	36955,00
599,37	37245,07
599,83	37247,73
600,28	37368,33
600,74	37525,13
601,19	37546,40
601,65	37657,93
602,10	37613,27
602,56	37953,47
603,01	37894,07
603,47	37895,60
603,92	37898,27
604,38	37942,33
604,83	38154,33
605,29	38174,00
605,74	38282,27
606,20	38257,93
606,65	38304,53
607,11	38420,80
607,56	38410,27
608,02	38550,73
608,47	38662,07
608,93	38717,20
609,38	39003,93
609,84	38921,20
610,29	39037,53
610,75	39110,13
611,20	39249,07
611,66	39266,20
612,11	39654,80
612,57	39658,20
613,02	39777,47
613,48	40052,60
613,93	39948,87
614,39	40033,07
614,84	40139,47
615,30	40308,27
615,75	40438,33
616,20	40553,33
616,66	40604,33
617,11	40775,53
617,57	40848,87
618,02	40994,67
618,48	41023,67
618,93	41177,20
619,38	41282,00
619,84	41474,00
620,29	41504,87
620,75	41753,13
621,20	41884,00
621,66	41857,40
622,11	42035,33
622,56	42211,00
623,02	42229,73
623,47	42293,53
623,93	42334,73
624,38	42569,87
624,83	42536,87
625,29	42701,47
625,74	42820,27
626,20	42855,20
626,65	43036,07
627,10	43178,33
627,56	43176,73
628,01	43330,53
628,46	43445,73
628,92	43379,87
629,37	43536,93
629,82	43622,67
630,28	43697,40
630,73	43835,47
631,19	43859,80
631,64	43963,40
632,09	44023,20
632,55	44173,60
633,00	44107,40
633,45	44206,53
633,91	44206,67
634,36	44320,33
634,81	44378,67
635,27	44478,20
635,72	44475,07
636,17	44534,27
636,63	44714,73
637,08	44776,60
637,53	44739,47
637,99	44879,00
638,44	44965,53
638,89	44976,07
639,34	45060,27
639,80	45064,67
640,25	45146,20
640,70	45319,93
641,16	45454,33
641,61	45351,73
642,06	45467,20
642,51	45548,80
642,97	45529,00
643,42	45680,33
643,87	45852,87
644,33	45876,27
644,78	45838,87
645,23	46003,00
645,68	46048,80
646,14	46155,73
646,59	46215,33
647,04	46323,73
647,49	46455,40
647,95	46426,53
648,40	46515,80
648,85	46416,80
649,30	46657,47
649,76	46703,13
650,21	47046,47
650,66	46787,87
651,11	46766,80
651,57	46859,47
652,02	47008,60
652,47	46966,07
652,92	47091,87
653,37	47195,00
653,83	47265,07
654,28	47354,20
654,73	47432,80
655,18	47361,40
655,63	47376,67
656,09	47534,33
656,54	47525,73
656,99	47640,87
657,44	47808,27
657,89	47915,60
658,35	47857,07
658,80	47899,53
659,25	47899,20
659,70	48216,33
660,15	47944,67
660,60	48231,13
661,06	48212,13
661,51	48248,27
661,96	48294,40
662,41	48222,40
662,86	48184,67
663,31	48395,93
663,77	48493,73
664,22	48569,73
664,67	48632,60
665,12	48655,60
665,57	48721,67
666,02	48673,60
666,47	48688,13
666,93	48775,80
667,38	49014,33
667,83	49085,87
668,28	49057,87
668,73	49241,47
669,18	49147,13
669,63	49369,13
670,08	49157,53
670,53	49295,00
670,99	49455,87
671,44	49534,87
671,89	49734,73
672,34	49813,07
672,79	49719,20
673,24	49713,93
673,69	49800,67
674,14	49924,40
674,59	49775,67
675,04	49912,87
675,49	49901,00
675,95	50048,47
676,40	50171,53
676,85	50195,40
677,30	50117,60
677,75	50124,93
678,20	50339,67
678,65	50191,87
679,10	50354,07
679,55	50518,40
680,00	50575,07
680,45	50661,80
680,90	50635,33
681,35	50554,27
681,80	50482,87
682,25	50616,67
682,70	50750,00
683,15	50933,53
683,60	51060,33
684,05	51088,33
684,50	51087,73
684,95	51015,80
685,40	50953,73
685,85	51023,73
686,30	51043,00
686,75	51119,00
687,20	51304,07
687,65	51330,67
688,10	51388,27
688,55	51383,80
689,00	51499,60
689,45	51367,00
689,90	51359,80
690,35	51385,87
690,80	51401,53
691,25	51369,27
691,70	51412,20
692,15	51240,93
692,60	51444,40
693,05	51555,07
693,50	51748,60
693,95	51910,20
694,40	51966,00
694,85	52078,80
695,30	52482,20
695,75	52250,60
696,20	52285,67
696,65	52362,93
697,10	52146,00
697,55	52044,67
698,00	52104,33
698,45	52125,60
698,90	52342,87
699,34	52445,47
699,79	52497,53
700,24	52636,07
700,69	52813,40
701,14	52712,93
701,59	52744,00
702,04	52384,47
702,49	52509,27
702,94	52471,33
703,39	52675,87
703,84	52870,47
704,28	52924,60
704,73	52947,60
705,18	53044,53
705,63	52890,20
706,08	52789,80
706,53	52629,67
706,98	52747,20
707,43	52859,53
707,87	53082,33
708,32	53269,93
708,77	53338,80
709,22	53209,73
709,67	53095,07
710,12	53003,40
710,57	53003,80
711,01	52994,60
711,46	53155,53
711,91	53335,13
712,36	53526,20
712,81	53444,07
713,26	53549,53
713,71	53301,47
714,15	53330,60
714,60	53319,73
715,05	53338,60
715,50	53348,93
715,95	53442,27
716,39	53559,40
716,84	53652,87
717,29	53506,60
717,74	53403,07
718,19	53469,33
718,63	53431,13
719,08	53225,13
719,53	53277,00
719,98	53450,67
720,43	53548,60
720,87	53557,47
721,32	53678,87
721,77	53549,67
722,22	53539,87
722,67	53360,47
723,11	53245,40
723,56	53102,53
724,01	53259,93
724,46	53288,33
724,90	53504,47
725,35	53466,13
725,80	53609,33
726,25	53642,80
726,69	53661,60
727,14	53642,40
727,59	53371,33
728,04	53545,60
728,48	53524,73
728,93	53573,80
729,38	53732,67
729,83	53811,73
730,27	54107,47
730,72	54147,87
731,17	54370,00
731,61	54423,13
732,06	54362,67
732,51	54378,87
732,96	54259,07
733,40	54475,00
733,85	54629,20
734,30	54846,93
734,74	55162,80
735,19	55337,07
735,64	55406,27
736,09	55656,53
736,53	55418,00
736,98	55371,07
737,43	55350,87
737,87	55371,80
738,32	55433,80
738,77	55533,13
739,21	55658,93
739,66	55852,13
740,11	56007,80
740,55	55955,00
741,00	55837,67
741,45	55829,80
741,89	55834,73
742,34	55737,27
742,79	55599,27
743,23	55566,00
743,68	55566,73
744,12	55719,33
744,57	55773,07
745,02	55922,80
745,46	56039,80
745,91	56012,60
746,36	55993,60
746,80	55622,33
747,25	55439,20
747,69	55296,73
748,14	55396,53
748,59	55471,33
749,03	55520,13
749,48	55654,80
749,92	55852,87
750,37	55731,53
750,82	55681,40
751,26	55595,40
751,71	55495,07
752,15	55370,40
752,60	55216,73
753,05	55237,60
753,49	55121,27
753,94	55252,60
754,38	55289,00
754,83	55524,87
755,27	55477,73
755,72	55437,47
756,17	55272,60
756,61	55104,13
757,06	54810,80
757,50	54882,53
757,95	54764,00
758,39	54814,87
758,84	54890,60
759,28	54893,93
759,73	54969,20
760,17	55047,80
760,62	54885,60
761,07	54649,40
761,51	54494,00
761,96	54381,80
762,40	54297,67
762,85	54268,40
763,29	54602,07
763,74	55033,93
764,18	55204,27
764,63	55326,13
765,07	55384,93
765,52	55337,60
765,96	55041,47
766,41	54813,07
766,85	54597,73
767,30	54601,13
767,74	54674,87
768,19	54937,27
768,63	55307,93
769,07	55594,73
769,52	56072,00
769,96	56054,67
770,41	56121,33
770,85	56033,93
771,30	55813,67
771,74	55772,20
772,19	55565,13
772,63	55417,47
773,08	55242,73
773,52	55237,87
773,97	55311,40
774,41	55301,20
774,85	55632,47
775,30	55838,93
775,74	56123,67
776,19	56191,20
776,63	56184,67
777,08	55979,40
777,52	55722,53
777,96	55480,13
778,41	55354,60
778,85	55132,67
779,30	55133,67
779,74	55390,20
780,18	55457,13
780,63	55598,13
781,07	56006,33
781,52	55951,20
781,96	55810,40
782,40	55737,93
782,85	55407,47
783,29	55173,40
783,74	54832,20
784,18	54600,73
784,62	54351,87
785,07	54408,27
785,51	54560,40
785,95	54785,93
786,40	55002,13
786,84	55282,27
787,28	55436,67
787,73	55205,20
788,17	54927,20
788,61	54589,53
789,06	54290,40
789,50	54149,93
789,94	53938,67
790,39	53876,73
790,83	53728,47
791,27	54014,53
791,72	54415,80
792,16	54617,33
792,60	54807,33
793,05	54819,60
793,49	55021,60
793,93	54474,87
794,38	53974,47
794,82	53410,33
795,26	53082,20
795,71	52887,60
796,15	52998,93
796,59	53271,67
797,03	53545,80
797,48	53833,67
797,92	53956,87
798,36	54149,80
798,81	54104,00
799,25	53884,67
799,69	53399,93
800,13	53031,80
800,58	52555,80
801,02	52402,07
801,46	52293,87
801,90	52472,53
802,35	52605,67
802,79	53170,00
803,23	53638,60
803,67	53776,07
804,12	53940,00
804,56	53771,60
805,00	53394,07
805,44	53018,27
805,89	52441,47
806,33	51872,93
806,77	51492,20
807,21	51540,87
807,66	51535,73
808,10	51901,07
808,54	52142,93
808,98	52519,87
809,42	52881,80
809,87	53063,73
810,31	53098,33
810,75	53100,40
811,19	53016,00
811,63	52672,53
812,08	51917,47
812,52	51435,47
812,96	51238,33
813,40	51061,13
813,84	50835,60
814,28	50813,47
814,73	51240,73
815,17	51794,47
815,61	52243,73
816,05	52505,73
816,49	52639,73
816,93	52626,27
817,38	52536,13
817,82	52212,00
818,26	51828,00
818,70	51131,13
819,14	50770,33
819,58	50562,20
820,03	50286,73
820,47	50470,80
820,91	50652,93
821,35	51023,07
821,79	51392,47
822,23	51957,93
822,67	52052,73
823,11	52266,93
823,55	52245,73
824,00	51873,27
824,44	51635,13
824,88	51168,20
825,32	50786,87
825,76	50507,60
826,20	50189,60
826,64	50235,40
827,08	50321,80
827,52	50710,13
827,96	51211,53
828,41	51664,07
828,85	51794,40
829,29	51913,00
829,73	51974,07
830,17	51664,53
830,61	51496,67
831,05	51003,33
831,49	50623,87
831,93	50027,67
832,37	49895,40
832,81	49974,07
833,25	50307,53
833,69	50800,40
834,13	51313,53
834,57	51779,53
835,01	52098,13
835,45	52108,27
835,89	51941,20
836,33	51333,00
836,77	50707,60
837,22	50183,60
837,66	49739,33
838,10	49528,67
838,54	49481,87
838,98	49741,07
839,42	50073,27
839,86	50569,93
840,30	51230,27
840,74	51765,80
841,18	52338,13
841,62	52340,53
842,06	52264,00
842,50	51871,13
842,94	51407,00
843,37	50666,00
843,81	49851,33
844,25	49349,53
844,69	48995,47
845,13	49014,73
845,57	49365,47
846,01	49793,87
846,45	50472,87
846,89	51045,53
847,33	51677,60
847,77	52257,07
848,21	52548,53
848,65	52593,60
849,09	52505,00
849,53	52375,33
849,97	52002,80
850,41	51385,73
850,85	50710,00
851,29	50319,67
851,73	49847,87
852,16	49604,47
852,60	49457,67
853,04	49552,80
853,48	49972,93
853,92	50582,13
854,36	51311,93
854,80	52392,27
855,24	52675,47
855,68	52924,67
856,12	52788,53
856,55	52435,00
856,99	51648,33
857,43	50808,07
857,87	49921,60
858,31	49288,13
858,75	49130,80
859,19	48943,87
859,63	49432,33
860,06	50123,93
860,50	50899,60
860,94	51557,40
861,38	52351,07
861,82	52649,33
862,26	52772,40
862,70	52761,40
863,13	52444,60
863,57	51777,47
864,01	51229,27
864,45	50407,13
864,89	50010,67
865,33	49748,73
865,76	49648,40
866,20	49862,00
866,64	50146,87
867,08	50641,27
867,52	51169,60
867,96	51969,53
868,39	52484,40
868,83	52895,53
869,27	52952,20
869,71	52710,67
870,15	51993,60
870,58	50998,27
871,02	49826,80
871,46	49098,80
871,90	48713,67
872,34	48474,13
872,77	48816,07
873,21	49367,27
873,65	50069,27
874,09	51132,67
874,52	51941,13
874,96	52490,47
875,40	52894,73
875,84	53166,33
876,27	52909,67
876,71	52894,07
877,15	52205,60
877,59	51360,13
878,02	50618,40
878,46	50006,27
878,90	49336,47
879,34	48822,73
879,77	48740,67
880,21	48722,27
880,65	48970,40
881,09	49668,40
881,52	50732,67
881,96	51868,00
882,40	52674,93
882,83	53462,87
883,27	53849,87
883,71	53722,33
884,14	53236,80
884,58	52447,07
885,02	51572,80
885,46	50696,33
885,89	49937,33
886,33	48946,87
886,77	48430,40
887,20	48359,60
887,64	48177,47
888,08	48680,60
888,51	49271,80
888,95	49955,87
889,39	50905,27
889,82	51332,13
890,26	52024,07
890,70	52742,67
891,13	53391,47
891,57	53789,53
892,01	53613,80
892,44	52910,27
892,88	52000,07
893,31	50881,47
893,75	49999,27
894,19	49329,20
894,62	48735,53
895,06	48659,20
895,50	48490,93
895,93	48777,67
896,37	49570,20
896,80	50567,33
897,24	51488,27
897,68	52264,87
898,11	53221,27
898,55	53991,07
898,98	54370,80
899,42	54016,00
899,86	53368,20
900,29	52480,27
900,73	51751,87
901,16	50655,33
901,60	49544,33
902,04	48786,47
902,47	48349,73
902,91	48065,53
903,34	48066,93
903,78	48637,13
904,21	48921,47
904,65	49417,87
905,09	49829,93
905,52	50427,33
905,96	51076,73
906,39	51610,20
906,83	51901,27
907,26	52469,13
907,70	52723,47
908,13	52535,27
908,57	52133,27
909,00	51383,80
909,44	50480,47
909,87	49448,60
910,31	48532,07
910,74	48092,13
911,18	47788,07
911,62	47990,87
912,05	48331,47
912,49	49220,73
912,92	50223,80
913,36	51292,47
913,79	52214,80
914,22	53116,53
914,66	53767,13
915,09	53709,67
915,53	53151,47
915,96	51956,80
916,40	50665,20
916,83	49285,53
917,27	48495,47
917,70	48091,27
918,14	48160,53
918,57	48362,80
919,01	48509,13
919,44	48881,67
919,88	49718,60
920,31	50170,27
920,75	50681,80
921,18	51498,00
921,61	52186,00
922,05	52785,93
922,48	53035,40
922,92	53201,53
923,35	53033,13
923,79	52658,93
924,22	52045,00
924,65	51106,13
925,09	50425,47
925,52	49372,80
925,96	48488,47
926,39	47586,80
926,82	46958,53
927,26	47137,93
927,69	47312,00
928,13	48034,93
928,56	48491,60
928,99	49217,33
929,43	50114,87
929,86	50828,67
930,30	51462,53
930,73	51534,20
931,16	51166,80
931,60	50733,40
932,03	49680,60
932,46	48958,87
932,90	47978,87
933,33	46998,27
933,76	45758,87
934,20	45035,00
934,63	44585,33
935,07	44414,80
935,50	44421,40
935,93	44546,20
936,37	45019,73
936,80	45358,27
937,23	46184,87
937,67	46611,40
938,10	46795,53
938,53	46783,67
938,96	46511,73
939,40	45746,80
939,83	44632,73
940,26	43664,33
940,70	42491,47
941,13	41491,93
941,56	40508,53
942,00	39785,87
942,43	39249,53
942,86	39064,07
943,29	39296,20
943,73	39464,87
944,16	39672,73
944,59	40196,20
945,03	40738,87
945,46	41125,60
945,89	41496,00
946,32	42065,87
946,76	42582,13
947,19	43111,60
947,62	43234,33
948,05	43252,47
948,49	43015,60
948,92	42609,13
949,35	41832,07
949,78	41161,67
950,22	40643,60
950,65	40000,33
951,08	39439,73
951,51	39193,33
951,95	39279,27
952,38	39665,40
952,81	40647,00
953,24	41497,33
953,67	42638,07
954,11	43525,87
954,54	44315,73
954,97	44794,27
955,40	44921,47
955,83	44818,33
956,27	44389,20
956,70	43617,53
957,13	42900,27
957,56	42243,73
957,99	41248,60
958,43	40682,07
958,86	40319,07
959,29	39956,00
959,72	39848,00
960,15	39703,53
960,58	39971,80
961,02	40386,47
961,45	40978,07
961,88	41594,60
962,31	42269,00
962,74	43014,60
963,17	43490,27
963,61	44084,93
964,04	44251,93
964,47	44210,60
964,90	43837,73
965,33	43148,93
965,76	42463,33
966,19	41382,60
966,62	40469,40
967,06	39667,53
967,49	38892,60
967,92	38656,00
968,35	38508,20
968,78	38716,40
969,21	38498,53
969,64	38495,07
970,07	38546,87
970,50	38658,80
970,93	38918,67
971,37	39323,53
971,80	39688,73
972,23	40222,93
972,66	40746,67
973,09	41214,33
973,52	41410,87
973,95	41323,80
974,38	40919,33
974,81	40186,20
975,24	39382,53
975,67	38510,60
976,10	37783,47
976,53	37130,13
976,96	36696,00
977,39	36342,07
977,82	36272,27
978,26	36159,07
978,69	36362,20
979,12	36650,87
979,55	37167,87
979,98	37689,53
980,41	38046,33
980,84	38395,07
981,27	38790,00
981,70	39246,47
982,13	39199,60
982,56	39177,00
982,99	39167,20
983,42	39111,73
983,85	38748,53
984,28	38546,80
984,71	38209,93
985,14	37489,53
985,57	36843,47
986,00	36196,00
986,43	35635,93
986,86	34956,47
987,29	34370,93
987,72	34212,93
988,15	34041,80
988,57	34074,73
989,00	34211,47
989,43	34363,40
989,86	34719,73
990,29	35089,93
990,72	35579,53
991,15	35953,20
991,58	36331,67
992,01	36628,93
992,44	36575,07
992,87	36335,27
993,30	36084,73
993,73	35613,33
994,16	35172,60
994,59	34583,87
995,02	34063,20
995,44	33459,20
995,87	32919,53
996,30	32405,07
996,73	32162,33
997,16	31831,67
997,59	31790,13
998,02	31721,13
998,45	31747,00
998,88	31874,73
999,31	31998,87
999,73	32393,40
1000,16	32498,87
1000,59	32956,40
1001,02	33269,93
1001,45	33318,53
1001,88	33367,87
1002,31	33311,60
1002,74	32912,00
1003,16	32439,20
1003,59	31825,33
1004,02	31172,40
1004,45	30441,00
1004,88	29866,47
1005,31	29395,47
1005,73	29080,20
1006,16	28692,87
1006,59	28395,47
1007,02	28333,07
1007,45	28268,33
1007,88	28227,40
1008,30	28257,13
1008,73	28360,80
1009,16	28386,20
1009,59	28739,67
1010,02	28675,07
1010,44	28649,00
1010,87	28682,40
1011,30	28745,60
1011,73	28773,93
1012,16	28688,13
1012,58	28639,87
1013,01	28373,93
1013,44	28104,87
1013,87	27632,00
1014,30	26987,53
1014,72	26615,13
1015,15	26014,80
1015,58	25779,07
1016,01	25412,60
1016,43	25355,87
1016,86	25323,13
1017,29	25529,73
1017,72	25700,47
1018,14	27230,80
1018,57	26142,33
1019,00	26305,27
1019,43	26730,60
1019,85	26901,27
1020,28	27068,40
1020,71	27154,73
1021,14	27330,07
1021,56	27430,53
1021,99	27559,67
1022,42	27679,40
1022,84	27646,73
1023,27	27910,60
1023,70	27523,53
1024,13	27182,27
1024,55	26862,27
1024,98	26524,80
1025,41	26203,87
1025,83	25914,87
1026,26	25641,80
1026,69	25483,73
1027,11	25561,13
1027,54	25330,73
1027,97	25208,73
1028,39	25237,60
1028,82	25324,07
1029,25	25478,33
1029,67	25805,73
1030,10	25800,60
1030,53	25889,27
1030,95	25957,93
1031,38	25906,87
1031,81	25649,13
1032,23	25515,93
1032,66	25331,00
1033,09	24981,33
1033,51	24756,93
1033,94	24313,67
1034,37	23891,87
1034,79	23497,13
1035,22	23151,00
1035,64	22691,27
1036,07	22452,80
1036,50	22075,67
1036,92	21850,20
1037,35	21685,07
1037,77	21389,87
1038,20	21360,47
1038,63	21318,00
1039,05	21305,87
1039,48	21376,33
1039,90	21363,20
1040,33	21297,13
1040,76	21324,60
1041,18	21323,67
1041,61	21238,67
1042,03	21288,13
1042,46	21094,87
1042,88	20850,73
1043,31	20597,40
1043,74	20273,47
1044,16	20061,80
1044,59	19681,80
1045,01	19391,47
1045,44	19073,67
1045,86	18771,87
1046,29	18520,13
1046,71	18338,13
1047,14	18023,40
1047,56	17838,47
1047,99	17708,87
1048,42	17498,13
1048,84	17456,40
1049,27	17411,07
1049,69	17365,47
1050,12	17183,07
1050,54	17130,80
1050,97	17135,80
1051,39	17092,53
1051,82	17048,80
1052,24	16929,40
1052,67	16819,33
1053,09	16739,53
1053,52	16537,67
1053,94	16543,67
1054,37	16309,60
1054,79	16213,40
1055,22	15985,27
1055,64	15842,00
1056,06	15675,40
1056,49	15602,60
1056,91	15324,93
1057,34	15169,33
1057,76	14894,80
1058,19	14954,13
1058,61	14432,53
1059,04	14307,00
1059,46	14143,20
1059,89	13940,40
1060,31	13807,07
1060,73	13642,27
1061,16	13604,20
1061,58	13425,33
1062,01	13294,80
1062,43	13280,93
1062,86	13270,93
1063,28	13161,60
1063,70	13042,27
1064,13	12962,13
1064,55	12979,20
1064,98	12965,07
1065,40	12801,53
1065,82	12684,67
1066,25	12591,47
1066,67	12597,27
1067,10	12480,80
1067,52	12345,73
1067,94	12223,20
1068,37	12047,80
1068,79	12050,47
1069,21	11780,80
1069,64	11636,00
1070,06	11446,60
1070,48	11449,20
1070,91	11317,07
1071,33	11238,13
1071,76	11070,40
1072,18	11019,87
1072,60	10896,67
1073,03	10770,87
1073,45	10686,20
1073,87	10768,87
1074,30	10618,73
1074,72	10534,33
1075,14	10550,87
1075,57	10546,20
1075,99	10537,47
1076,41	10477,80
1076,84	10398,80
1077,26	10390,60
1077,68	10421,20
1078,10	10276,67
1078,53	10260,67
1078,95	10242,73
1079,37	9922,20
1079,80	9920,87
1080,22	9772,40
1080,64	9670,33
1081,06	9581,93
1081,49	9456,20
1081,91	9352,47
1082,33	9306,27
1082,76	9202,67
1083,18	9129,80
1083,60	9056,47
1084,02	8992,00
1084,45	8985,80
1084,87	8879,53
1085,29	8805,67
1085,71	8889,80
1086,14	8712,07
1086,56	8702,40
1086,98	8729,33
1087,40	8598,73
1087,83	8689,00
1088,25	11210,93
1088,67	8569,00
1089,09	8520,80
1089,51	8471,33
1089,94	8416,20
1090,36	8431,27
1090,78	8264,80
1091,20	8144,53
1091,62	8096,67
1092,05	7977,87
1092,47	7870,60
1092,89	7832,60
1093,31	7705,87
1093,73	7656,47
1094,16	7587,60
1094,58	7477,47
1095,00	7423,53
1095,42	7393,27
1095,84	7301,87
1096,26	7303,47
1096,69	7282,27
1097,11	7175,60
1097,53	7168,47
1097,95	7114,40
1098,37	7170,13
1098,79	7142,33
1099,22	7113,40
1099,64	7003,87
1100,06	6973,67
1100,48	6873,87
1100,90	6836,73
1101,32	6748,07
1101,74	6682,93
1102,16	6530,40
1102,59	6459,80
1103,01	6404,53
1103,43	6359,47
1103,85	6325,67
1104,27	6876,00
1104,69	6329,13
1105,11	6075,27
1105,53	6205,07
1105,95	6172,27
1106,38	6092,40
1106,80	6103,20
1107,22	5968,93
1107,64	5955,13
1108,06	6046,87
1108,48	5807,20
1108,90	5846,27
1109,32	5751,60
1109,74	5702,20
1110,16	5519,60
1110,58	5535,00
1111,00	5436,67
1111,42	5474,67
1111,84	5408,07
1112,26	5395,47
1112,68	5345,00
1113,11	5348,20
1113,53	5226,47
1113,95	5097,93
1114,37	5059,40
1114,79	4999,40
1115,21	4871,07
1115,63	4882,00
1116,05	4814,67
1116,47	4636,27
1116,89	4488,87
1117,31	4273,47
1117,73	4187,60
1118,15	2152,40
1118,57	2198,93
1118,99	2198,60
1119,41	2198,67
>>>>>End Processed Spectral Data<<<<<
