SpectraSuite Data File
++++++++++++++++++++++++++++++++++++
Date: Wed Feb 24 12:47:45 EET 2016
User: OO Maya
Dark Spectrum Present: No
Reference Spectrum Present: No
Number of Sampled Component Spectra: 1
Spectrometers: FLMS00673
Integration Time (usec): 700000 (FLMS00673)
Spectra Averaged: 6 (FLMS00673)
Boxcar Smoothing: 0 (FLMS00673)
Correct for Electrical Dark: No (FLMS00673)
Strobe/Lamp Enabled: No (FLMS00673)
Correct for Detector Non-linearity: No (FLMS00673)
Correct for Stray Light: No (FLMS00673)
Number of Pixels in Processed Spectrum: 2048
>>>>>Begin Processed Spectral Data<<<<<
188,41	2300,36
188,88	2300,36
189,35	2300,36
189,82	2231,70
190,28	2294,51
190,75	2301,53
191,22	2323,37
191,68	2294,12
192,15	2314,40
192,62	2400,61
193,08	2319,86
193,55	2383,45
194,02	2335,46
194,48	2391,25
194,95	2457,56
195,42	2428,70
195,88	2442,35
196,35	2475,12
196,82	2458,73
197,28	2516,86
197,75	2535,97
198,22	2511,39
198,68	2619,06
199,15	2939,32
199,61	3900,50
200,08	4047,57
200,55	3931,32
201,01	3939,51
201,48	3932,49
201,94	3917,67
202,41	3838,09
202,88	3964,09
203,34	3917,28
203,81	4260,95
204,27	3945,75
204,74	3953,55
205,20	3864,22
205,67	3865,39
206,13	3863,05
206,60	3868,52
207,06	3860,71
207,53	3871,64
208,00	3818,97
208,46	3917,67
208,93	3914,94
209,39	3850,18
209,86	3828,73
210,32	3910,25
210,78	3891,14
211,25	3802,59
211,71	3851,35
212,18	3768,65
212,64	3790,11
213,11	3873,98
213,57	3779,58
214,04	3789,33
214,50	3764,75
214,97	3967,60
215,43	3840,43
215,89	3749,54
216,36	3739,40
216,82	3733,54
217,29	3744,86
217,75	3751,88
218,22	3756,17
218,68	3833,02
219,14	3778,79
219,61	3808,83
220,07	3755,78
220,53	3767,48
221,00	3767,09
221,46	3735,89
221,93	3739,01
222,39	3713,65
222,85	3783,87
223,32	3712,87
223,78	3691,81
224,24	3873,59
224,71	3721,45
225,17	3731,59
225,63	3730,42
226,10	3699,22
226,56	3726,52
227,02	3751,88
227,48	3699,61
227,95	3726,13
228,41	3699,61
228,87	3728,47
229,34	3835,75
229,80	3742,13
230,26	3691,02
230,72	3774,11
231,19	3750,71
231,65	3682,83
232,11	3726,52
232,57	3731,20
233,04	3725,74
233,50	3719,50
233,96	3686,34
234,42	3723,01
234,88	3709,75
235,35	3735,50
235,81	3715,60
236,27	3702,34
236,73	3752,27
237,19	3703,12
237,66	3750,71
238,12	3685,95
238,58	3703,51
239,04	3691,81
239,50	3731,98
239,96	3702,34
240,43	3679,32
240,89	3761,24
241,35	3703,51
241,81	3657,87
242,27	3710,53
242,73	3676,20
243,19	3724,57
243,66	3687,12
244,12	3704,68
244,58	3760,07
245,04	3682,83
245,50	3666,84
245,96	3692,20
246,42	3671,91
246,88	3707,02
247,34	3833,02
247,80	3708,19
248,26	3813,51
248,72	3739,01
249,18	3775,67
249,65	3682,44
250,11	3735,89
250,57	3691,80
251,03	3696,10
251,49	3681,27
251,95	3711,70
252,41	3695,71
252,87	3652,02
253,33	3665,67
253,79	3693,37
254,25	3685,17
254,71	3716,38
255,17	3664,89
255,63	3727,30
256,09	3666,84
256,55	3666,06
257,01	3744,47
257,47	3720,28
257,92	3717,94
258,38	3761,63
258,84	3725,74
259,30	3678,15
259,76	3670,74
260,22	3737,06
260,68	3683,61
261,14	3643,82
261,60	3655,92
262,06	3696,10
262,52	3762,41
262,98	3695,32
263,43	3721,45
263,89	3646,55
264,35	3657,09
264,81	3635,63
265,27	3661,77
265,73	3646,55
266,19	3658,65
266,65	3685,95
267,10	3653,58
267,56	3685,95
268,02	3695,32
268,48	3648,12
268,94	3707,41
269,40	3660,60
269,85	3670,35
270,31	3643,82
270,77	3616,13
271,23	3653,19
271,69	3646,55
272,14	3729,25
272,60	3637,19
273,06	3646,94
273,52	3710,14
273,98	3629,78
274,43	3652,02
274,89	3672,30
275,35	3638,36
275,81	3712,48
276,26	3659,43
276,72	3626,27
277,18	3615,35
277,63	3783,87
278,09	3771,38
278,55	3634,85
279,01	3678,15
279,46	3651,63
279,92	3624,32
280,38	3624,32
280,83	3626,27
281,29	3652,80
281,75	3643,04
282,20	3656,70
282,66	3689,85
283,12	3642,26
283,57	3698,44
284,03	3671,13
284,49	3699,22
284,94	3699,22
285,40	3656,70
285,86	3681,27
286,31	3646,94
286,77	3644,60
287,23	3689,85
287,68	3642,26
288,14	3740,18
288,59	3629,39
289,05	3675,81
289,51	3759,29
289,96	3623,54
290,42	3726,13
290,87	3677,37
291,33	3643,04
291,78	3651,24
292,24	3628,61
292,70	3657,09
293,15	3676,98
293,61	3639,92
294,06	3705,85
294,52	3583,36
294,97	3602,08
295,43	3658,65
295,88	3556,05
296,34	3626,27
296,79	3651,63
297,25	3636,41
297,70	3635,63
298,16	3643,82
298,61	3627,44
299,07	3655,14
299,52	3657,87
299,98	3639,14
300,43	3792,06
300,89	3618,47
301,34	3595,06
301,80	3651,24
302,25	3658,65
302,71	3635,63
303,16	3623,93
303,61	3631,34
304,07	3716,38
304,52	3668,40
304,98	3620,42
305,43	3666,45
305,88	3648,12
306,34	3636,41
306,79	3685,56
307,25	3700,39
307,70	3624,71
308,15	3634,07
308,61	3609,50
309,06	3688,68
309,52	3657,48
309,97	3595,06
310,42	3696,10
310,88	3640,70
311,33	3682,83
311,78	3624,32
312,24	3653,19
312,69	3658,26
313,14	3606,77
313,60	3637,97
314,05	3618,08
314,50	3691,02
314,95	3652,02
315,41	3725,35
315,86	3705,07
316,31	3646,94
316,77	3629,78
317,22	3581,80
317,67	3588,04
318,12	3579,46
318,58	3599,35
319,03	3620,81
319,48	3643,43
319,93	3734,32
320,39	3585,31
320,84	3639,92
321,29	3641,48
321,74	3584,14
322,20	3616,13
322,65	3527,58
323,10	3614,96
323,55	3583,75
324,00	3550,98
324,46	3582,58
324,91	3514,70
325,36	3561,91
325,81	3627,83
326,26	3761,63
326,71	3639,14
327,17	3653,58
327,62	3582,19
328,07	3647,72
328,52	3650,85
328,97	3611,45
329,42	3577,90
329,87	3602,08
330,33	3592,33
330,78	3677,37
331,23	3587,26
331,68	3589,21
332,13	3621,20
332,58	3637,19
333,03	3600,91
333,48	3604,82
333,93	3657,48
334,38	3611,06
334,84	3611,06
335,29	3640,31
335,74	3582,58
336,19	3595,45
336,64	3602,86
337,09	3618,47
337,54	3627,83
337,99	3597,40
338,44	3629,00
338,89	3624,32
339,34	3609,50
339,79	3547,86
340,24	3561,13
340,69	3645,38
341,14	3706,63
341,59	3699,61
342,04	3634,85
342,49	3637,97
342,94	3540,45
343,39	3652,80
343,84	3622,37
344,29	3620,03
344,74	3613,79
345,19	3595,06
345,64	3597,01
346,09	3598,18
346,54	3634,85
346,99	3572,44
347,43	3656,31
347,88	3645,77
348,33	3674,25
348,78	3600,13
349,23	3607,16
349,68	3663,72
350,13	3597,40
350,58	3575,56
351,03	3632,90
351,48	3580,63
351,92	3598,57
352,37	3655,92
352,82	3592,72
353,27	3638,75
353,72	3572,44
354,17	3608,33
354,62	3593,50
355,06	3580,24
355,51	3581,41
355,96	3627,05
356,41	3572,44
356,86	3562,69
357,30	3594,67
357,75	3594,28
358,20	3625,88
358,65	3619,25
359,10	3711,70
359,54	3624,32
359,99	3631,34
360,44	3632,90
360,89	3649,29
361,34	3611,84
361,78	3607,16
362,23	3620,42
362,68	3654,75
363,13	3603,25
363,57	3599,74
364,02	3641,09
364,47	3711,31
364,91	3589,60
365,36	3626,66
365,81	3578,68
366,26	3605,21
366,70	3723,01
367,15	3599,35
367,60	3609,11
368,04	3635,63
368,49	3588,43
368,94	3684,39
369,38	3641,09
369,83	3675,03
370,28	3575,56
370,72	3613,01
371,17	3678,54
371,62	3657,48
372,06	3698,05
372,51	3730,81
372,96	3667,62
373,40	3623,54
373,85	3680,49
374,29	3593,11
374,74	3691,02
375,19	3648,51
375,63	3678,54
376,08	3648,12
376,52	3671,13
376,97	3790,50
377,42	3701,95
377,86	3690,24
378,31	3614,57
378,75	3650,07
379,20	3698,05
379,64	3659,82
380,09	3670,35
380,53	3734,71
380,98	3682,05
381,43	3706,63
381,87	3737,84
382,32	3703,51
382,76	3726,13
383,21	3717,16
383,65	3712,48
384,10	3707,80
384,54	3708,58
384,99	3713,65
385,43	3735,10
385,88	3740,18
386,32	3809,61
386,76	3759,29
387,21	3854,08
387,65	3763,19
388,10	3834,19
388,54	3829,51
388,99	3927,42
389,43	4024,16
389,88	3906,35
390,32	3930,54
390,76	4012,85
391,21	4052,64
391,65	4183,32
392,10	4454,43
392,54	4459,50
392,98	4658,84
393,43	4866,36
393,87	5024,74
394,32	5400,40
394,76	5736,26
395,20	6117,38
395,65	6567,93
396,09	7140,19
396,53	7536,53
396,98	8156,77
397,42	8692,36
397,86	9423,00
398,31	10144,27
398,75	10835,51
399,19	11554,05
399,64	12359,20
400,08	13131,97
400,52	14133,32
400,97	14939,25
401,41	15814,22
401,85	16842,50
402,30	17582,49
402,74	18457,07
403,18	19569,22
403,62	20382,56
404,07	21411,61
404,51	22413,75
404,95	23421,35
405,39	24290,47
405,84	25432,65
406,28	26403,58
406,72	27352,67
407,16	28486,27
407,61	29284,00
408,05	30293,16
408,49	31204,80
408,93	32343,47
409,37	33187,24
409,82	34208,10
410,26	35317,90
410,70	36190,92
411,14	36666,83
411,58	37750,11
412,02	38862,26
412,47	39474,31
412,91	40449,14
413,35	41202,01
413,79	41764,52
414,23	42256,03
414,67	43014,37
415,12	43604,18
415,56	44014,94
416,00	44999,53
416,44	45275,32
416,88	46090,61
417,32	46186,57
417,76	46902,00
418,20	47555,39
418,64	47813,63
419,08	48085,14
419,53	48509,55
419,97	49004,19
420,41	49296,36
420,85	49905,29
421,29	50243,11
421,73	50309,04
422,17	51105,21
422,61	51194,93
423,05	51927,91
423,49	51816,73
423,93	52473,25
424,37	52757,24
424,81	53108,32
425,25	53537,02
425,69	53899,03
426,13	54245,82
426,57	54592,61
427,01	55041,99
427,45	55384,10
427,89	55734,01
428,33	55898,62
428,77	56258,29
429,21	56530,96
429,65	56990,48
430,09	57295,92
430,53	57758,96
430,97	57969,61
431,41	58297,28
431,85	58650,70
432,29	58974,48
432,73	59075,12
433,16	59299,81
433,60	59777,67
434,04	59894,31
434,48	60350,32
434,92	60488,41
435,36	60809,85
435,80	61065,36
436,24	61303,31
436,68	61503,82
437,12	61659,85
437,55	62159,17
437,99	62390,10
438,43	62354,60
438,87	62725,97
439,31	62781,36
439,75	63025,17
440,18	63267,02
440,62	63421,50
441,06	63433,59
441,50	63768,68
441,94	63877,12
442,38	63927,05
442,81	64095,57
443,25	64161,50
443,69	64269,55
444,13	64482,15
444,57	64519,99
445,00	64606,98
445,44	64706,84
445,88	64969,76
446,32	64653,01
446,75	65075,47
447,19	64981,85
447,63	65174,56
448,07	65334,88
448,50	65484,29
448,94	65515,11
449,38	65535,00
449,82	65535,00
450,25	65535,00
450,69	65535,00
451,13	65535,00
451,56	65535,00
452,00	65535,00
452,44	65535,00
452,87	65535,00
453,31	65535,00
453,75	65535,00
454,18	65535,00
454,62	65535,00
455,06	65535,00
455,49	65535,00
455,93	65535,00
456,37	65535,00
456,80	65535,00
457,24	65535,00
457,68	65535,00
458,11	65535,00
458,55	65535,00
458,98	65535,00
459,42	65535,00
459,86	65535,00
460,29	65535,00
460,73	65535,00
461,16	65535,00
461,60	65535,00
462,04	65535,00
462,47	65535,00
462,91	65535,00
463,34	65535,00
463,78	65535,00
464,21	65535,00
464,65	65535,00
465,08	65535,00
465,52	65535,00
465,96	65535,00
466,39	65535,00
466,83	65535,00
467,26	65535,00
467,70	65535,00
468,13	65535,00
468,57	65535,00
469,00	65535,00
469,44	65535,00
469,87	65535,00
470,31	65535,00
470,74	65535,00
471,17	65535,00
471,61	65535,00
472,04	65535,00
472,48	65535,00
472,91	65535,00
473,35	65535,00
473,78	65535,00
474,22	65535,00
474,65	65535,00
475,08	65535,00
475,52	65535,00
475,95	65535,00
476,39	65535,00
476,82	65535,00
477,25	65535,00
477,69	65535,00
478,12	65535,00
478,56	65535,00
478,99	65535,00
479,42	65535,00
479,86	65535,00
480,29	65535,00
480,72	65535,00
481,16	65535,00
481,59	65535,00
482,02	65535,00
482,46	65535,00
482,89	65535,00
483,32	65535,00
483,76	65535,00
484,19	65535,00
484,62	65535,00
485,06	65535,00
485,49	65535,00
485,92	65535,00
486,35	65535,00
486,79	65535,00
487,22	65535,00
487,65	65535,00
488,09	65535,00
488,52	65535,00
488,95	65535,00
489,38	65535,00
489,82	65535,00
490,25	65535,00
490,68	65535,00
491,11	65535,00
491,54	65535,00
491,98	65535,00
492,41	65535,00
492,84	65535,00
493,27	65535,00
493,70	65535,00
494,14	65535,00
494,57	65535,00
495,00	65535,00
495,43	65535,00
495,86	65535,00
496,30	65535,00
496,73	65535,00
497,16	65535,00
497,59	65535,00
498,02	65535,00
498,45	65535,00
498,88	65535,00
499,32	65535,00
499,75	65535,00
500,18	65535,00
500,61	65535,00
501,04	65535,00
501,47	65535,00
501,90	65535,00
502,33	65535,00
502,76	65535,00
503,19	65535,00
503,62	65535,00
504,06	65535,00
504,49	65535,00
504,92	65535,00
505,35	65535,00
505,78	65535,00
506,21	65535,00
506,64	65535,00
507,07	65535,00
507,50	65535,00
507,93	65535,00
508,36	65535,00
508,79	65535,00
509,22	65535,00
509,65	65535,00
510,08	65535,00
510,51	65535,00
510,94	65535,00
511,37	65535,00
511,80	65535,00
512,23	65535,00
512,66	65535,00
513,09	65535,00
513,52	65535,00
513,95	65535,00
514,38	65535,00
514,81	65535,00
515,23	65535,00
515,66	65535,00
516,09	65535,00
516,52	65535,00
516,95	65535,00
517,38	65535,00
517,81	65535,00
518,24	65535,00
518,67	65535,00
519,10	65535,00
519,53	65535,00
519,95	65535,00
520,38	65535,00
520,81	65535,00
521,24	65535,00
521,67	65535,00
522,10	65535,00
522,53	65535,00
522,95	65535,00
523,38	65535,00
523,81	65535,00
524,24	65535,00
524,67	65535,00
525,09	65535,00
525,52	65535,00
525,95	65535,00
526,38	65535,00
526,81	65535,00
527,23	65535,00
527,66	65535,00
528,09	65535,00
528,52	65535,00
528,95	65535,00
529,37	65535,00
529,80	65535,00
530,23	65535,00
530,66	65535,00
531,08	65535,00
531,51	65535,00
531,94	65535,00
532,37	65535,00
532,79	65535,00
533,22	65535,00
533,65	65535,00
534,07	65535,00
534,50	65535,00
534,93	65535,00
535,35	65535,00
535,78	65535,00
536,21	65535,00
536,63	65535,00
537,06	65535,00
537,49	65535,00
537,91	65535,00
538,34	65535,00
538,77	65535,00
539,19	65535,00
539,62	65535,00
540,05	65535,00
540,47	65535,00
540,90	65535,00
541,33	65535,00
541,75	65535,00
542,18	65535,00
542,60	65535,00
543,03	65535,00
543,45	65535,00
543,88	65535,00
544,31	65535,00
544,73	65535,00
545,16	65535,00
545,58	65535,00
546,01	65535,00
546,43	65535,00
546,86	65535,00
547,29	65535,00
547,71	65535,00
548,14	65535,00
548,56	65535,00
548,99	65535,00
549,41	65535,00
549,84	65535,00
550,26	65535,00
550,69	65535,00
551,11	65535,00
551,54	65535,00
551,96	65535,00
552,39	65535,00
552,81	65535,00
553,24	65535,00
553,66	65535,00
554,08	65535,00
554,51	65535,00
554,93	65535,00
555,36	65535,00
555,78	65535,00
556,21	65535,00
556,63	65535,00
557,06	65535,00
557,48	65535,00
557,90	65535,00
558,33	65535,00
558,75	65535,00
559,18	65535,00
559,60	65535,00
560,02	65535,00
560,45	65535,00
560,87	65535,00
561,29	65535,00
561,72	65535,00
562,14	65535,00
562,57	65535,00
562,99	65535,00
563,41	65535,00
563,84	65535,00
564,26	65535,00
564,68	65535,00
565,11	65535,00
565,53	65535,00
565,95	65535,00
566,37	65535,00
566,80	65535,00
567,22	65535,00
567,64	65535,00
568,07	65535,00
568,49	65535,00
568,91	65535,00
569,33	65535,00
569,76	65535,00
570,18	65535,00
570,60	65535,00
571,03	65535,00
571,45	65535,00
571,87	65535,00
572,29	65535,00
572,71	65535,00
573,14	65535,00
573,56	65535,00
573,98	65535,00
574,40	65535,00
574,83	65535,00
575,25	65535,00
575,67	65535,00
576,09	65535,00
576,51	65535,00
576,93	65535,00
577,36	65535,00
577,78	65535,00
578,20	65535,00
578,62	65535,00
579,04	65535,00
579,46	65535,00
579,89	65535,00
580,31	65535,00
580,73	65535,00
581,15	65535,00
581,57	65535,00
581,99	65535,00
582,41	65535,00
582,83	65535,00
583,25	65535,00
583,68	65535,00
584,10	65535,00
584,52	65535,00
584,94	65535,00
585,36	65535,00
585,78	65535,00
586,20	65535,00
586,62	65535,00
587,04	65535,00
587,46	65535,00
587,88	65535,00
588,30	65535,00
588,72	65535,00
589,14	65535,00
589,56	65535,00
589,98	65535,00
590,40	65535,00
590,82	65535,00
591,24	65535,00
591,66	65535,00
592,08	65535,00
592,50	65535,00
592,92	65535,00
593,34	65535,00
593,76	65535,00
594,18	65535,00
594,60	65535,00
595,02	65535,00
595,44	65535,00
595,86	65535,00
596,28	65535,00
596,70	65535,00
597,12	65535,00
597,54	65535,00
597,96	65535,00
598,37	65535,00
598,79	65535,00
599,21	65535,00
599,63	65535,00
600,05	65535,00
600,47	65535,00
600,89	65535,00
601,31	65535,00
601,73	65535,00
602,14	65535,00
602,56	65535,00
602,98	65535,00
603,40	65535,00
603,82	65535,00
604,24	65535,00
604,65	65535,00
605,07	65535,00
605,49	65535,00
605,91	65535,00
606,33	65535,00
606,75	65535,00
607,16	65535,00
607,58	65535,00
608,00	65535,00
608,42	65535,00
608,83	65535,00
609,25	65535,00
609,67	65535,00
610,09	65535,00
610,51	65535,00
610,92	65535,00
611,34	65535,00
611,76	65535,00
612,17	65535,00
612,59	65535,00
613,01	65535,00
613,43	65535,00
613,84	65535,00
614,26	65535,00
614,68	65535,00
615,10	65535,00
615,51	65535,00
615,93	65535,00
616,35	65535,00
616,76	65535,00
617,18	65535,00
617,60	65535,00
618,01	65535,00
618,43	65535,00
618,85	65535,00
619,26	65535,00
619,68	65535,00
620,09	65535,00
620,51	65535,00
620,93	65535,00
621,34	65535,00
621,76	65535,00
622,18	65535,00
622,59	65535,00
623,01	65535,00
623,42	65535,00
623,84	65535,00
624,26	65535,00
624,67	65535,00
625,09	65535,00
625,50	65535,00
625,92	65535,00
626,33	65535,00
626,75	65535,00
627,17	65535,00
627,58	65535,00
628,00	65535,00
628,41	65535,00
628,83	65535,00
629,24	65535,00
629,66	65535,00
630,07	65535,00
630,49	65535,00
630,90	65535,00
631,32	65535,00
631,73	65535,00
632,15	65535,00
632,56	65535,00
632,98	65535,00
633,39	65535,00
633,81	65535,00
634,22	65535,00
634,63	65535,00
635,05	65535,00
635,46	65535,00
635,88	65535,00
636,29	65535,00
636,71	65535,00
637,12	65535,00
637,54	65535,00
637,95	65535,00
638,36	65535,00
638,78	65535,00
639,19	65535,00
639,61	65535,00
640,02	65535,00
640,43	65535,00
640,85	65535,00
641,26	65535,00
641,67	65535,00
642,09	65535,00
642,50	65535,00
642,91	65535,00
643,33	65535,00
643,74	65535,00
644,15	65535,00
644,57	65535,00
644,98	65535,00
645,39	65535,00
645,81	65535,00
646,22	65535,00
646,63	65535,00
647,05	65535,00
647,46	65535,00
647,87	65535,00
648,29	65535,00
648,70	65535,00
649,11	65535,00
649,52	65535,00
649,94	65535,00
650,35	65535,00
650,76	65535,00
651,17	65535,00
651,59	65535,00
652,00	65535,00
652,41	65535,00
652,82	65535,00
653,24	65535,00
653,65	65535,00
654,06	65535,00
654,47	65535,00
654,88	65535,00
655,30	65535,00
655,71	65535,00
656,12	65535,00
656,53	65535,00
656,94	65535,00
657,35	65535,00
657,77	65535,00
658,18	65535,00
658,59	65535,00
659,00	65535,00
659,41	65535,00
659,82	65535,00
660,23	65535,00
660,65	65535,00
661,06	65535,00
661,47	65535,00
661,88	65535,00
662,29	65535,00
662,70	65535,00
663,11	65535,00
663,52	65535,00
663,93	65535,00
664,34	65535,00
664,76	65535,00
665,17	65535,00
665,58	65535,00
665,99	65535,00
666,40	65535,00
666,81	65535,00
667,22	65535,00
667,63	65535,00
668,04	65535,00
668,45	65535,00
668,86	65535,00
669,27	65535,00
669,68	65535,00
670,09	65535,00
670,50	65535,00
670,91	65535,00
671,32	65535,00
671,73	65535,00
672,14	65535,00
672,55	65535,00
672,96	65535,00
673,37	65535,00
673,78	65535,00
674,19	65535,00
674,60	65535,00
675,01	65535,00
675,42	65535,00
675,82	65535,00
676,23	65535,00
676,64	65535,00
677,05	65535,00
677,46	65535,00
677,87	65535,00
678,28	65535,00
678,69	65535,00
679,10	65535,00
679,51	65535,00
679,91	65535,00
680,32	65535,00
680,73	65535,00
681,14	65535,00
681,55	65535,00
681,96	65535,00
682,37	65535,00
682,78	65535,00
683,18	65535,00
683,59	65535,00
684,00	65535,00
684,41	65535,00
684,82	65535,00
685,22	65535,00
685,63	65535,00
686,04	65535,00
686,45	65535,00
686,86	65535,00
687,26	65535,00
687,67	65535,00
688,08	65535,00
688,49	65535,00
688,90	65535,00
689,30	65535,00
689,71	65535,00
690,12	65535,00
690,53	65535,00
690,93	65535,00
691,34	65535,00
691,75	65535,00
692,15	65535,00
692,56	65535,00
692,97	65535,00
693,38	65535,00
693,78	65535,00
694,19	65535,00
694,60	65535,00
695,00	65535,00
695,41	65535,00
695,82	65535,00
696,22	65535,00
696,63	65535,00
697,04	65535,00
697,44	65535,00
697,85	65535,00
698,26	65535,00
698,66	65535,00
699,07	65535,00
699,48	65535,00
699,88	65535,00
700,29	65535,00
700,69	65535,00
701,10	65535,00
701,51	65535,00
701,91	65535,00
702,32	65535,00
702,72	65535,00
703,13	65535,00
703,54	65535,00
703,94	65535,00
704,35	65535,00
704,75	65535,00
705,16	65535,00
705,56	65535,00
705,97	65535,00
706,37	65535,00
706,78	65535,00
707,18	65535,00
707,59	65535,00
707,99	65535,00
708,40	65535,00
708,81	65535,00
709,21	65535,00
709,62	65535,00
710,02	65535,00
710,42	65535,00
710,83	65535,00
711,23	65535,00
711,64	65535,00
712,04	65535,00
712,45	65535,00
712,85	65535,00
713,26	65535,00
713,66	65535,00
714,07	65535,00
714,47	65535,00
714,87	65535,00
715,28	65535,00
715,68	65535,00
716,09	65535,00
716,49	65535,00
716,90	65535,00
717,30	65535,00
717,70	65535,00
718,11	65535,00
718,51	65535,00
718,91	65535,00
719,32	65535,00
719,72	65535,00
720,13	65535,00
720,53	65535,00
720,93	65535,00
721,34	65535,00
721,74	65535,00
722,14	65535,00
722,55	65535,00
722,95	65535,00
723,35	65535,00
723,76	65535,00
724,16	65535,00
724,56	65535,00
724,97	65535,00
725,37	65535,00
725,77	65535,00
726,17	65535,00
726,58	65535,00
726,98	65535,00
727,38	65535,00
727,78	65535,00
728,19	65535,00
728,59	65535,00
728,99	65535,00
729,39	65535,00
729,80	65535,00
730,20	65535,00
730,60	65535,00
731,00	65535,00
731,41	65535,00
731,81	65535,00
732,21	65535,00
732,61	65535,00
733,01	65535,00
733,42	65535,00
733,82	65535,00
734,22	65535,00
734,62	65535,00
735,02	65535,00
735,42	65535,00
735,83	65535,00
736,23	65535,00
736,63	65535,00
737,03	65535,00
737,43	65535,00
737,83	65535,00
738,23	65535,00
738,64	65535,00
739,04	65535,00
739,44	65535,00
739,84	65535,00
740,24	65535,00
740,64	65535,00
741,04	65535,00
741,44	65535,00
741,84	65535,00
742,24	65535,00
742,64	65535,00
743,05	65535,00
743,45	65535,00
743,85	65535,00
744,25	65535,00
744,65	65535,00
745,05	65535,00
745,45	65535,00
745,85	65535,00
746,25	65535,00
746,65	65535,00
747,05	65535,00
747,45	65535,00
747,85	65535,00
748,25	65535,00
748,65	65535,00
749,05	65535,00
749,45	65535,00
749,85	65535,00
750,25	65535,00
750,65	65535,00
751,05	65535,00
751,45	65535,00
751,85	65535,00
752,25	65535,00
752,64	65535,00
753,04	65535,00
753,44	65535,00
753,84	65535,00
754,24	65535,00
754,64	65535,00
755,04	65535,00
755,44	65535,00
755,84	65535,00
756,24	65535,00
756,64	65535,00
757,03	65535,00
757,43	65535,00
757,83	65535,00
758,23	65535,00
758,63	65535,00
759,03	65535,00
759,43	65535,00
759,82	65535,00
760,22	65535,00
760,62	65535,00
761,02	65535,00
761,42	65535,00
761,82	65535,00
762,21	65535,00
762,61	65535,00
763,01	65535,00
763,41	65535,00
763,81	65535,00
764,20	65535,00
764,60	65535,00
765,00	65535,00
765,40	65535,00
765,79	65535,00
766,19	65535,00
766,59	65535,00
766,99	65535,00
767,38	65535,00
767,78	65535,00
768,18	65535,00
768,58	65535,00
768,97	65535,00
769,37	65535,00
769,77	65535,00
770,16	65535,00
770,56	65535,00
770,96	65535,00
771,36	65535,00
771,75	65535,00
772,15	65535,00
772,55	65535,00
772,94	65535,00
773,34	65535,00
773,74	65535,00
774,13	65535,00
774,53	65535,00
774,93	65535,00
775,32	65535,00
775,72	65535,00
776,11	65535,00
776,51	65535,00
776,91	65535,00
777,30	65535,00
777,70	65535,00
778,10	65535,00
778,49	65535,00
778,89	65535,00
779,28	65535,00
779,68	65535,00
780,07	65535,00
780,47	65535,00
780,87	65535,00
781,26	65535,00
781,66	65535,00
782,05	65535,00
782,45	65535,00
782,84	65535,00
783,24	65535,00
783,63	65535,00
784,03	65535,00
784,42	65535,00
784,82	65535,00
785,21	65535,00
785,61	65535,00
786,00	65535,00
786,40	65535,00
786,79	65535,00
787,19	65535,00
787,58	65535,00
787,98	65535,00
788,37	65535,00
788,77	65535,00
789,16	65535,00
789,56	65535,00
789,95	65535,00
790,35	65535,00
790,74	65535,00
791,13	65535,00
791,53	65535,00
791,92	65535,00
792,32	65535,00
792,71	65535,00
793,10	65535,00
793,50	65535,00
793,89	65535,00
794,29	65535,00
794,68	65535,00
795,07	65535,00
795,47	65535,00
795,86	65535,00
796,26	65535,00
796,65	65535,00
797,04	65535,00
797,44	65535,00
797,83	65535,00
798,22	65535,00
798,62	65535,00
799,01	65535,00
799,40	65535,00
799,80	65535,00
800,19	65535,00
800,58	65535,00
800,97	65535,00
801,37	65535,00
801,76	65535,00
802,15	65535,00
802,55	65535,00
802,94	65535,00
803,33	65535,00
803,72	65535,00
804,12	65535,00
804,51	65535,00
804,90	65535,00
805,29	65535,00
805,69	65535,00
806,08	65535,00
806,47	65535,00
806,86	65535,00
807,26	65535,00
807,65	65535,00
808,04	65535,00
808,43	65535,00
808,82	65535,00
809,22	65535,00
809,61	65535,00
810,00	65535,00
810,39	65535,00
810,78	65535,00
811,17	65535,00
811,57	65535,00
811,96	65535,00
812,35	65535,00
812,74	65535,00
813,13	65535,00
813,52	65535,00
813,91	65535,00
814,30	65535,00
814,70	65535,00
815,09	65535,00
815,48	65535,00
815,87	65535,00
816,26	65535,00
816,65	65535,00
817,04	65535,00
817,43	65535,00
817,82	65535,00
818,21	65535,00
818,60	65535,00
819,00	65535,00
819,39	65535,00
819,78	65535,00
820,17	65535,00
820,56	65535,00
820,95	65535,00
821,34	65535,00
821,73	65535,00
822,12	65535,00
822,51	65535,00
822,90	65535,00
823,29	65535,00
823,68	65535,00
824,07	65535,00
824,46	65535,00
824,85	65535,00
825,24	65535,00
825,63	65535,00
826,02	65535,00
826,41	65535,00
826,80	65535,00
827,18	65535,00
827,57	65535,00
827,96	65535,00
828,35	65535,00
828,74	65535,00
829,13	65535,00
829,52	65535,00
829,91	65535,00
830,30	65535,00
830,69	65535,00
831,08	65535,00
831,47	65535,00
831,85	65535,00
832,24	65535,00
832,63	65535,00
833,02	65535,00
833,41	65535,00
833,80	65535,00
834,19	65535,00
834,57	65535,00
834,96	65507,30
835,35	65488,19
835,74	65426,56
836,13	65276,76
836,52	65216,69
836,90	65024,76
837,29	64950,26
837,68	64857,80
838,07	64693,97
838,46	64683,05
838,84	64475,52
839,23	64450,55
839,62	64362,39
840,01	64136,53
840,40	63934,46
840,78	63875,95
841,17	63761,26
841,56	63489,37
841,95	63534,23
842,33	63414,86
842,72	63395,36
843,11	63259,22
843,50	63046,62
843,88	63094,21
844,27	62963,53
844,66	62684,23
845,04	62735,33
845,43	62550,82
845,82	62501,28
846,20	62349,53
846,59	62161,51
846,98	61995,72
847,37	61980,51
847,75	61709,78
848,14	61821,35
848,53	61604,07
848,91	61414,49
849,30	61274,05
849,68	61315,79
850,07	60963,54
850,46	60922,58
850,84	60906,20
851,23	60484,51
851,62	60418,98
852,00	60360,08
852,39	60281,28
852,77	60061,27
853,16	60021,09
853,55	59883,39
853,93	59625,15
854,32	59673,13
854,70	59446,88
855,09	59166,40
855,47	59047,04
855,86	59097,75
856,25	58780,99
856,63	58703,37
857,02	58494,28
857,40	58538,75
857,79	58151,78
858,17	58060,50
858,56	57996,13
858,94	57615,02
859,33	57548,31
859,71	57438,31
860,10	57238,19
860,48	57094,25
860,87	56650,72
861,25	56820,02
861,64	56664,76
862,02	56471,67
862,41	56245,41
862,79	56075,33
863,18	55842,45
863,56	55774,97
863,95	55450,02
864,33	55354,84
864,71	54977,62
865,10	54814,96
865,48	54847,72
865,87	54570,76
866,25	54353,48
866,64	54115,53
867,02	53735,97
867,40	53675,51
867,79	53462,13
868,17	53274,49
868,56	53172,29
868,94	53112,22
869,32	52685,85
869,71	52748,65
870,09	52411,23
870,47	52045,32
870,86	51858,86
871,24	51613,10
871,62	51474,23
872,01	51133,68
872,39	51009,25
872,77	51011,20
873,16	50642,95
873,54	50505,64
873,92	50126,47
874,31	50005,94
874,69	49950,54
875,07	49370,09
875,46	49184,02
875,84	49371,26
876,22	48958,94
876,60	48589,91
876,99	48513,84
877,37	48198,26
877,75	47937,68
878,14	47667,35
878,52	47258,15
878,90	47198,46
879,28	47061,54
879,66	46535,31
880,05	46420,62
880,43	46155,75
880,81	45983,73
881,19	45453,59
881,58	45437,60
881,96	45285,08
882,34	44776,79
882,72	44284,11
883,10	44299,71
883,49	43716,92
883,87	43628,76
884,25	43538,26
884,63	42816,98
885,01	42850,92
885,39	42674,99
885,78	42403,49
886,16	42253,69
886,54	41850,34
886,92	41979,85
887,30	41860,09
887,68	41736,82
888,06	41863,99
888,44	41935,38
888,83	41716,93
889,21	42002,47
889,59	41972,44
889,97	42155,00
890,35	42484,23
890,73	42598,92
891,11	43049,86
891,49	43370,91
891,87	43807,42
892,25	44334,43
892,63	44779,91
893,01	44966,76
893,39	45577,25
893,77	46335,98
894,16	46523,61
894,54	47004,59
894,92	47594,01
895,30	48041,84
895,68	48379,26
896,06	48873,12
896,44	49272,57
896,82	49611,95
897,20	49602,58
897,58	49885,79
897,96	49842,10
898,34	50027,00
898,72	49732,87
899,10	49929,87
899,47	49563,18
899,85	49320,94
900,23	48970,25
900,61	48592,25
900,99	48223,62
901,37	47590,11
901,75	47078,32
902,13	46546,62
902,51	45745,38
902,89	45029,96
903,27	44384,75
903,65	43700,14
904,03	43175,86
904,40	42618,42
904,78	41974,00
905,16	41271,45
905,54	40713,62
905,92	40065,29
906,30	39417,74
906,68	39018,29
907,06	38124,21
907,43	37880,40
907,81	37271,08
908,19	36747,97
908,57	36173,76
908,95	35816,83
909,33	35346,38
909,70	34955,90
910,08	34745,64
910,46	34085,61
910,84	33665,88
911,22	33295,29
911,59	32897,79
911,97	32531,50
912,35	32295,10
912,73	31986,54
913,11	31560,95
913,48	31205,58
913,86	30899,36
914,24	30624,74
914,62	30390,30
914,99	30086,81
915,37	29638,98
915,75	29518,45
916,13	29314,82
916,50	29024,20
916,88	28721,88
917,26	28646,60
917,63	28288,88
918,01	28129,34
918,39	27754,07
918,77	27434,98
919,14	27158,41
919,52	26997,30
919,90	26692,64
920,27	26387,20
920,65	26529,19
921,03	26010,37
921,40	25820,01
921,78	25683,09
922,16	25567,62
922,53	25323,04
922,91	25149,06
923,28	24744,53
923,66	24801,49
924,04	24331,04
924,41	24214,79
924,79	24035,74
925,17	23917,93
925,54	23774,77
925,92	23573,49
926,29	23238,01
926,67	23077,68
927,05	22904,09
927,42	22723,09
927,80	22431,69
928,17	22421,94
928,55	22269,03
928,92	22021,32
929,30	22010,79
929,67	21795,07
930,05	21650,35
930,43	21453,74
930,80	21398,74
931,18	21139,33
931,55	20936,09
931,93	20802,29
932,30	20807,75
932,68	20378,26
933,05	20199,21
933,43	20264,75
933,80	20017,82
934,18	19839,55
934,55	19815,37
934,92	19683,52
935,30	19447,51
935,67	19161,19
936,05	19211,12
936,42	18837,41
936,80	18771,88
937,17	18505,84
937,55	18377,89
937,92	18451,61
938,29	18255,01
938,67	17931,62
939,04	17762,33
939,42	17871,55
939,79	17533,34
940,16	17403,05
940,54	17286,42
940,91	17070,31
941,29	16933,00
941,66	16912,71
942,03	16718,45
942,41	16630,29
942,78	16502,34
943,15	16329,53
943,53	16160,23
943,90	16172,71
944,27	16075,97
944,65	15694,07
945,02	15812,66
945,39	15699,53
945,77	15478,74
946,14	15550,13
946,51	15351,18
946,89	15147,95
947,26	15161,60
947,63	15169,40
948,01	14865,13
948,38	14794,92
948,75	14751,62
949,12	14583,49
949,50	14503,13
949,87	14491,82
950,24	14380,25
950,61	14148,54
950,99	14067,40
951,36	13892,25
951,73	13836,86
952,10	13787,71
952,48	13661,71
952,85	13652,73
953,22	13463,93
953,59	13349,25
953,96	13309,85
954,34	13129,24
954,71	13093,35
955,08	12948,62
955,45	12822,23
955,82	12775,42
956,20	12656,45
956,57	12610,81
956,94	12501,19
957,31	12446,97
957,68	12325,26
958,05	12191,07
958,42	12075,99
958,80	11973,01
959,17	11889,14
959,54	11813,07
959,91	11691,37
960,28	11692,93
960,65	11576,68
961,02	11428,84
961,39	11539,62
961,76	11238,86
962,14	11254,47
962,51	10998,96
962,88	11049,67
963,25	10844,48
963,62	10840,97
963,99	10769,19
964,36	10678,69
964,73	10591,70
965,10	10539,04
965,47	10366,62
965,84	10342,05
966,21	10282,36
966,58	10300,31
966,95	10041,29
967,32	10012,81
967,69	10026,07
968,06	9941,04
968,43	9750,28
968,80	9835,71
969,17	9615,31
969,54	9627,01
969,91	9569,67
970,28	9428,85
970,65	9389,45
971,02	9288,42
971,39	9186,99
971,76	9161,25
972,13	9073,09
972,50	9011,45
972,87	9006,77
973,24	8922,90
973,61	8795,73
973,98	8770,77
974,34	8674,81
974,71	8696,65
975,08	8542,57
975,45	8466,11
975,82	8480,93
976,19	8388,87
976,56	8362,34
976,93	8226,20
977,30	8168,08
977,66	8051,44
978,03	8098,25
978,40	7974,21
978,77	8012,82
979,14	7906,72
979,51	7860,30
979,88	7834,94
980,24	7818,95
980,61	7704,26
980,98	7683,20
981,35	7590,75
981,72	7536,92
982,08	7511,17
982,45	7385,17
982,82	7360,20
983,19	7255,27
983,56	7355,13
983,92	7230,30
984,29	7216,65
984,66	7007,56
985,03	7064,91
985,39	7033,31
985,76	6965,82
986,13	6895,22
986,50	6804,33
986,86	6777,02
987,23	6715,39
987,60	6663,51
987,97	6729,04
988,33	6573,39
988,70	6574,56
989,07	6509,42
989,43	6452,47
989,80	6432,96
990,17	6360,41
990,53	6323,74
990,90	6298,77
991,27	6185,26
991,63	6136,49
992,00	6170,82
992,37	6098,27
992,73	6103,73
993,10	5980,07
993,47	5938,72
993,83	6021,03
994,20	5880,60
994,57	5869,67
994,93	5834,18
995,30	5875,91
995,66	5736,26
996,03	5667,61
996,40	5675,02
996,76	5585,30
997,13	5545,12
997,49	5493,24
997,86	5478,80
998,23	5513,52
998,59	5381,67
998,96	5359,83
999,32	5367,24
999,69	5331,74
1000,05	5264,64
1000,42	5233,05
1000,78	5222,52
1001,15	5159,71
1001,51	5180,78
1001,88	5106,27
1002,24	5087,93
1002,61	5057,51
1002,97	5137,87
1003,34	5064,14
1003,70	4977,54
1004,07	5016,16
1004,43	4964,67
1004,80	4862,46
1005,16	4906,54
1005,53	4837,89
1005,89	4735,29
1006,26	4757,92
1006,62	4656,89
1006,99	4771,18
1007,35	4712,67
1007,72	4663,13
1008,08	4661,57
1008,44	4596,03
1008,81	4530,50
1009,17	4487,20
1009,54	4472,76
1009,90	4451,70
1010,26	4456,38
1010,63	4432,97
1010,99	4427,12
1011,36	4399,82
1011,72	4392,02
1012,08	4366,66
1012,45	4296,83
1012,81	4257,04
1013,17	4316,34
1013,54	4129,10
1013,90	4207,50
1014,26	4166,54
1014,63	4155,23
1014,99	4129,49
1015,35	4063,95
1015,72	4131,83
1016,08	4066,68
1016,44	4048,74
1016,81	4006,22
1017,17	4002,71
1017,53	4051,47
1017,90	4004,66
1018,26	3951,99
1018,62	3925,08
1018,98	3924,69
1019,35	3892,70
1019,71	3845,89
1020,07	3881,78
1020,43	3869,69
1020,80	3797,91
1021,16	3788,94
1021,52	3805,71
1021,88	3756,17
1022,25	3737,06
1022,61	3766,31
1022,97	3712,09
1023,33	3700,00
1023,70	3706,63
1024,06	3681,27
1024,42	3685,95
1024,78	3610,67
1025,14	3610,67
1025,50	3631,34
1025,87	3634,07
1026,23	3596,62
1026,59	3526,41
1026,95	3538,50
1027,31	3503,78
1027,67	3524,46
1028,04	3489,74
1028,40	3504,17
1028,76	3495,59
1029,12	3441,37
1029,48	3423,42
1029,84	3399,63
1030,20	3410,55
1030,56	3425,37
1030,92	3463,60
1031,29	3379,34
1031,65	3345,80
1032,01	3341,11
1032,37	3340,72
1032,73	3387,54
1033,09	3350,48
1033,45	3368,81
1033,81	3294,69
1034,17	3325,90
1034,53	3257,64
1034,89	3242,81
1035,25	3242,81
1035,61	3242,81
>>>>>End Processed Spectral Data<<<<<
