SpectraSuite Data File
++++++++++++++++++++++++++++++++++++
Date: Wed Feb 24 12:44:40 EET 2016
User: OO Maya
Dark Spectrum Present: No
Reference Spectrum Present: No
Number of Sampled Component Spectra: 1
Spectrometers: FLMS00673
Integration Time (usec): 70000 (FLMS00673)
Spectra Averaged: 20 (FLMS00673)
Boxcar Smoothing: 0 (FLMS00673)
Correct for Electrical Dark: No (FLMS00673)
Strobe/Lamp Enabled: No (FLMS00673)
Correct for Detector Non-linearity: No (FLMS00673)
Correct for Stray Light: No (FLMS00673)
Number of Pixels in Processed Spectrum: 2048
>>>>>Begin Processed Spectral Data<<<<<
188,41	2223,86
188,88	2223,86
189,35	2223,86
189,82	2168,97
190,28	2170,14
190,75	2175,88
191,22	2163,59
191,68	2163,47
192,15	2164,88
192,62	2185,36
193,08	2185,48
193,55	2193,67
194,02	2231,00
194,48	2233,22
194,95	2269,03
195,42	2270,44
195,88	2306,25
196,35	2303,91
196,82	2345,22
197,28	2353,64
197,75	2370,96
198,22	2400,57
198,68	2415,43
199,15	2471,84
199,61	2575,53
200,08	2608,41
200,55	2625,03
201,01	2630,76
201,48	2648,32
201,94	2669,73
202,41	2653,70
202,88	2694,89
203,34	2695,13
203,81	2731,17
204,27	2701,68
204,74	2704,49
205,20	2713,15
205,67	2710,22
206,13	2729,06
206,60	2723,21
207,06	2714,20
207,53	2726,14
208,00	2724,27
208,46	2719,82
208,93	2738,89
209,39	2728,83
209,86	2721,22
210,32	2729,18
210,78	2731,29
211,25	2719,23
211,71	2705,07
212,18	2730,47
212,64	2713,62
213,11	2720,87
213,57	2721,46
214,04	2711,28
214,50	2710,57
214,97	2724,15
215,43	2696,06
215,89	2702,97
216,36	2691,38
216,82	2681,79
217,29	2685,53
217,75	2700,86
218,22	2699,69
218,68	2686,70
219,14	2683,78
219,61	2692,44
220,07	2686,70
220,53	2674,88
221,00	2673,01
221,46	2679,33
221,93	2657,91
222,39	2683,78
222,85	2683,42
223,32	2674,18
223,78	2674,18
224,24	2695,13
224,71	2674,30
225,17	2666,46
225,63	2674,06
226,10	2668,80
226,56	2680,62
227,02	2675,23
227,48	2662,48
227,95	2662,71
228,41	2685,41
228,87	2679,91
229,34	2678,74
229,80	2673,83
230,26	2663,30
230,72	2705,89
231,19	2686,70
231,65	2677,92
232,11	2673,24
232,57	2667,51
233,04	2672,77
233,50	2676,05
233,96	2683,42
234,42	2676,40
234,88	2677,69
235,35	2678,98
235,81	2687,17
236,27	2695,24
236,73	2684,24
237,19	2686,94
237,66	2694,19
238,12	2670,43
238,58	2679,09
239,04	2675,58
239,50	2707,41
239,96	2703,67
240,43	2681,79
240,89	2689,28
241,35	2699,81
241,81	2702,27
242,27	2713,97
242,73	2679,68
243,19	2693,49
243,66	2686,70
244,12	2693,72
244,58	2698,99
245,04	2700,51
245,50	2680,15
245,96	2698,17
246,42	2706,60
246,88	2686,12
247,34	2716,19
247,80	2700,86
248,26	2713,38
248,72	2718,42
249,18	2685,65
249,65	2702,62
250,11	2699,11
250,57	2706,24
251,03	2705,07
251,49	2701,10
251,95	2706,48
252,41	2703,90
252,87	2702,62
253,33	2697,58
253,79	2708,82
254,25	2716,43
254,71	2712,10
255,17	2710,11
255,63	2715,26
256,09	2703,67
256,55	2708,23
257,01	2702,73
257,47	2715,26
257,92	2716,07
258,38	2727,31
258,84	2699,69
259,30	2717,13
259,76	2730,00
260,22	2710,69
260,68	2722,98
261,14	2720,52
261,60	2719,12
262,06	2723,68
262,52	2725,09
262,98	2736,91
263,43	2712,91
263,89	2730,70
264,35	2730,70
264,81	2713,38
265,27	2744,86
265,73	2729,53
266,19	2726,72
266,65	2745,92
267,10	2729,18
267,56	2748,61
268,02	2742,05
268,48	2732,81
268,94	2753,06
269,40	2743,69
269,85	2745,57
270,31	2746,62
270,77	2737,72
271,23	2734,56
271,69	2747,55
272,14	2729,77
272,60	2757,50
273,06	2761,13
273,52	2764,17
273,98	2754,58
274,43	2752,82
274,89	2749,90
275,35	2755,16
275,81	2777,28
276,26	2769,09
276,72	2774,82
277,18	2787,23
277,63	2772,48
278,09	2790,74
278,55	2771,55
279,01	2784,07
279,46	2785,00
279,92	2780,44
280,38	2784,18
280,83	2789,10
281,29	2796,47
281,75	2792,96
282,20	2788,75
282,66	2792,49
283,12	2787,11
283,57	2798,11
284,03	2805,25
284,49	2809,70
284,94	2818,71
285,40	2819,53
285,86	2817,42
286,31	2820,81
286,77	2829,01
287,23	2806,89
287,68	2827,95
288,14	2840,47
288,59	2845,39
289,05	2832,87
289,51	2845,74
289,96	2845,86
290,42	2851,83
290,87	2855,34
291,33	2866,57
291,78	2863,06
292,24	2862,36
292,70	2860,13
293,15	2884,94
293,61	2856,16
294,06	2881,78
294,52	2867,98
294,97	2874,88
295,43	2886,58
295,88	2870,67
296,34	2887,99
296,79	2891,15
297,25	2906,01
297,70	2901,45
298,16	2902,03
298,61	2912,21
299,07	2902,97
299,52	2924,62
299,98	2921,69
300,43	2941,35
300,89	2955,63
301,34	2931,64
301,80	2936,67
302,25	2956,33
302,71	2961,60
303,16	2966,98
303,61	2966,51
304,07	2974,94
304,52	2973,77
304,98	2974,82
305,43	2990,62
305,88	2978,21
306,34	3001,03
306,79	3011,45
307,25	3014,61
307,70	3006,54
308,15	3021,51
308,61	3020,81
309,06	3061,54
309,52	3061,77
309,97	3048,20
310,42	3050,42
310,88	3058,73
311,33	3064,58
311,78	3059,55
312,24	3082,95
312,69	3101,44
313,14	3083,30
313,60	3099,92
314,05	3102,38
314,50	3119,47
314,95	3126,84
315,41	3142,64
315,86	3152,00
316,31	3126,49
316,77	3157,38
317,22	3156,56
317,67	3171,54
318,12	3162,77
318,58	3169,67
319,03	3173,77
319,48	3163,00
319,93	3175,17
320,39	3153,05
320,84	3167,68
321,29	3154,11
321,74	3185,24
322,20	3177,63
322,65	3181,37
323,10	3192,84
323,55	3219,06
324,00	3228,30
324,46	3247,61
324,91	3266,92
325,36	3287,98
325,81	3312,56
326,26	3317,36
326,71	3305,07
327,17	3298,17
327,62	3292,31
328,07	3305,77
328,52	3343,69
328,97	3348,72
329,42	3372,48
329,87	3384,06
330,33	3428,53
330,78	3443,63
331,23	3466,33
331,68	3489,15
332,13	3533,62
332,58	3527,54
333,03	3516,30
333,48	3522,27
333,93	3480,73
334,38	3473,36
334,84	3491,49
335,29	3516,19
335,74	3498,28
336,19	3520,75
336,64	3548,49
337,09	3542,99
337,54	3557,15
337,99	3600,21
338,44	3622,33
338,89	3637,43
339,34	3665,04
339,79	3668,67
340,24	3673,00
340,69	3715,37
341,14	3737,25
341,59	3745,09
342,04	3735,85
342,49	3741,46
342,94	3774,82
343,39	3778,44
343,84	3804,54
344,29	3802,79
344,74	3810,74
345,19	3823,62
345,64	3852,17
346,09	3869,14
346,54	3872,18
346,99	3897,93
347,43	3900,85
347,88	3905,18
348,33	3941,93
348,78	3955,74
349,23	3963,70
349,68	3970,95
350,13	3970,95
350,58	3994,12
351,03	4011,44
351,48	4005,59
351,92	4015,07
352,37	4049,13
352,82	4052,87
353,27	4058,72
353,72	4065,39
354,17	4091,14
354,62	4105,53
355,06	4118,52
355,51	4111,85
355,96	4140,99
356,41	4149,18
356,86	4172,36
357,30	4203,25
357,75	4200,56
358,20	4216,24
358,65	4222,91
359,10	4226,77
359,54	4231,92
359,99	4277,09
360,44	4264,46
360,89	4306,59
361,34	4285,29
361,78	4295,00
362,23	4306,35
362,68	4313,37
363,13	4341,11
363,57	4337,36
364,02	4366,62
364,47	4389,91
364,91	4374,93
365,36	4390,96
365,81	4403,13
366,26	4429,70
366,70	4441,05
367,15	4451,70
367,60	4450,41
368,04	4490,67
368,49	4505,30
368,94	4507,64
369,38	4551,17
369,83	4546,61
370,28	4540,64
370,72	4556,79
371,17	4577,39
371,62	4627,12
372,06	4641,28
372,51	4649,71
372,96	4666,56
373,40	4670,42
373,85	4675,81
374,29	4726,13
374,74	4748,60
375,19	4730,69
375,63	4748,60
376,08	4791,31
376,52	4796,69
376,97	4828,88
377,42	4830,98
377,86	4850,99
378,31	4865,97
378,75	4866,79
379,20	4890,43
379,64	4899,09
380,09	4942,98
380,53	4963,34
380,98	4973,76
381,43	4970,01
381,87	4996,11
382,32	5012,73
382,76	5064,10
383,21	5038,12
383,65	5090,31
384,10	5093,82
384,54	5106,58
384,99	5134,08
385,43	5193,41
385,88	5177,15
386,32	5222,91
386,76	5248,89
387,21	5241,51
387,65	5280,48
388,10	5309,39
388,54	5349,76
388,99	5343,09
389,43	5413,54
389,88	5388,73
390,32	5436,25
390,76	5440,34
391,21	5450,52
391,65	5460,00
392,10	5512,31
392,54	5512,66
392,98	5514,19
393,43	5547,89
393,87	5595,75
394,32	5631,21
394,76	5628,75
395,20	5650,87
395,65	5708,68
396,09	5705,17
396,53	5724,48
396,98	5706,23
397,42	5751,63
397,86	5781,01
398,31	5792,01
398,75	5841,16
399,19	5853,45
399,64	5873,46
400,08	5873,34
400,52	5951,16
400,97	5930,92
401,41	6010,85
401,85	6027,46
402,30	6033,32
402,74	6111,96
403,18	6102,24
403,62	6154,91
404,07	6188,61
404,51	6216,81
404,95	6297,56
405,39	6319,45
405,84	6335,48
406,28	6389,78
406,72	6414,82
407,16	6475,91
407,61	6520,38
408,05	6552,91
408,49	6607,45
408,93	6662,92
409,37	6685,51
409,82	6747,65
410,26	6806,39
410,70	6834,48
411,14	6890,42
411,58	6898,26
412,02	6948,47
412,47	7008,50
412,91	7068,77
413,35	7078,60
413,79	7129,86
414,23	7196,56
414,67	7252,03
415,12	7239,98
415,56	7270,41
416,00	7364,03
416,44	7367,19
416,88	7444,54
417,32	7430,73
417,76	7485,03
418,20	7526,46
418,64	7550,57
419,08	7562,15
419,53	7598,08
419,97	7654,02
420,41	7673,56
420,85	7769,41
421,29	7817,51
421,73	7764,03
422,17	7869,70
422,61	7863,85
423,05	7988,25
423,49	7947,17
423,93	8021,25
424,37	8070,40
424,81	8150,56
425,25	8182,40
425,69	8249,10
426,13	8309,72
426,57	8368,35
427,01	8427,57
427,45	8486,67
427,89	8491,70
428,33	8560,28
428,77	8661,27
429,21	8691,81
429,65	8761,33
430,09	8809,31
430,53	8950,44
430,97	8973,03
431,41	9050,73
431,85	9133,12
432,29	9161,79
432,73	9236,22
433,16	9255,88
433,60	9376,07
434,04	9392,10
434,48	9561,09
434,92	9592,33
435,36	9674,25
435,80	9715,80
436,24	9810,00
436,68	9819,37
437,12	9902,81
437,55	10045,35
437,99	10107,84
438,43	10108,07
438,87	10193,74
439,31	10233,06
439,75	10321,18
440,18	10404,15
440,62	10394,90
441,06	10435,16
441,50	10523,63
441,94	10589,17
442,38	10644,41
442,81	10661,73
443,25	10624,28
443,69	10690,86
444,13	10776,53
444,57	10793,61
445,00	10789,75
445,44	10845,57
445,88	10928,20
446,32	10832,94
446,75	10988,11
447,19	10957,33
447,63	11079,28
448,07	11078,46
448,50	11162,01
448,94	11202,51
449,38	11270,50
449,82	11288,87
450,25	11321,29
450,69	11410,81
451,13	11504,08
451,56	11629,89
452,00	11699,87
452,44	11757,45
452,87	11830,47
453,31	11852,12
453,75	12025,32
454,18	12065,81
454,62	12144,45
455,06	12223,68
455,49	12482,08
455,93	12501,85
456,37	12688,51
456,80	12831,40
457,24	12926,90
457,68	13053,64
458,11	13245,21
458,55	13249,66
458,98	13470,37
459,42	13568,32
459,86	13748,19
460,29	13800,38
460,73	13914,84
461,16	14239,00
461,60	14244,97
462,04	14400,03
462,47	14508,75
462,91	14591,72
463,34	14642,98
463,78	14826,24
464,21	14838,06
464,65	15049,06
465,08	15248,94
465,52	15335,66
465,96	15366,09
466,39	15555,55
466,83	15629,40
467,26	15773,57
467,70	15904,88
468,13	16042,97
468,57	16093,64
469,00	16378,48
469,44	16354,73
469,87	16651,51
470,31	16787,38
470,74	16906,16
471,17	17137,75
471,61	17363,73
472,04	17452,32
472,48	17793,34
472,91	17877,01
473,35	18105,33
473,78	18453,84
474,22	18692,22
474,65	18854,42
475,08	19073,73
475,52	19456,76
475,95	19632,18
476,39	19930,83
476,82	20089,52
477,25	20522,17
477,69	20829,13
478,12	21121,58
478,56	21460,25
478,99	21627,02
479,42	22046,79
479,86	22484,36
480,29	22616,36
480,72	22946,03
481,16	23245,62
481,59	23462,12
482,02	23928,23
482,46	24312,31
482,89	24431,45
483,32	24770,36
483,76	25236,36
484,19	25389,78
484,62	25709,26
485,06	26058,00
485,49	26252,15
485,92	26572,34
486,35	26795,51
486,79	27075,67
487,22	27480,93
487,65	27643,48
488,09	27998,19
488,52	28114,05
488,95	28341,31
489,38	28723,41
489,82	28980,28
490,25	29107,84
490,68	29430,01
491,11	29654,70
491,54	29870,74
491,98	30124,92
492,41	30358,04
492,84	30471,20
493,27	30637,38
493,70	30935,45
494,14	31173,48
494,57	31222,16
495,00	31419,00
495,43	31696,12
495,86	31972,19
496,30	31945,15
496,73	32234,09
497,16	32327,95
497,59	32490,26
498,02	32719,75
498,45	32818,41
498,88	32974,05
499,32	33211,73
499,75	33351,93
500,18	33441,11
500,61	33603,89
501,04	33837,94
501,47	33836,19
501,90	34059,24
502,33	34087,21
502,76	34270,01
503,19	34388,32
503,62	34688,03
504,06	34627,64
504,49	34697,74
504,92	34974,63
505,35	35138,11
505,78	35203,53
506,21	35450,81
506,64	35380,47
507,07	35699,02
507,50	35698,08
507,93	35791,36
508,36	36072,57
508,79	35906,39
509,22	36208,44
509,65	36367,83
510,08	36459,34
510,51	36559,99
510,94	36699,37
511,37	36733,19
511,80	37110,83
512,23	36978,47
512,66	37290,12
513,09	37265,78
513,52	37624,11
513,95	37739,03
514,38	37775,66
514,81	37890,70
515,23	38103,69
515,66	38203,75
516,09	38474,78
516,52	38481,45
516,95	38689,64
517,38	38607,96
517,81	38845,17
518,24	39034,75
518,67	39249,85
519,10	39139,02
519,53	39431,59
519,95	39757,28
520,38	39628,90
520,81	39906,60
521,24	39935,98
521,67	40117,37
522,10	40136,33
522,53	40385,01
522,95	40464,94
523,38	40684,36
523,81	40740,42
524,24	40882,14
524,67	40900,63
525,09	41134,45
525,52	41138,07
525,95	41416,01
526,38	41593,66
526,81	41522,74
527,23	41813,44
527,66	41870,19
528,09	41951,88
528,52	41994,71
528,95	42026,07
529,37	42252,99
529,80	42318,06
530,23	42322,62
530,66	42658,96
531,08	42495,00
531,51	42764,98
531,94	42673,23
532,37	42991,19
532,79	42705,30
533,22	43083,06
533,65	43252,98
534,07	43177,97
534,50	43298,86
534,93	43196,34
535,35	43562,75
535,78	43498,39
536,21	43536,42
536,63	43709,27
537,06	43747,07
537,49	43821,97
537,91	43895,46
538,34	43913,60
538,77	43906,69
539,19	44076,85
539,62	43780,19
540,05	43623,72
540,47	43617,29
540,90	43350,70
541,33	43507,75
541,75	43405,47
542,18	43027,00
542,60	42987,92
543,03	43372,35
543,45	43066,68
543,88	43084,82
544,31	42997,05
544,73	43047,13
545,16	43040,93
545,58	43386,04
546,01	43442,92
546,43	43602,66
546,86	43881,30
547,29	44083,87
547,71	44139,58
548,14	44499,67
548,56	44811,19
548,99	44867,84
549,41	45069,59
549,84	45362,98
550,26	45379,48
550,69	45390,13
551,11	45548,23
551,54	45636,94
551,96	45531,61
552,39	45614,82
552,81	45761,80
553,24	45584,27
553,66	45885,38
554,08	45938,75
554,51	46020,20
554,93	46018,44
555,36	46071,57
555,78	46184,15
556,21	46080,23
556,63	46236,70
557,06	46112,30
557,48	46266,31
557,90	46355,13
558,33	46400,30
558,75	46275,90
559,18	46723,30
559,60	46607,56
560,02	46797,96
560,45	46832,60
560,87	47072,62
561,29	46948,22
561,72	47170,10
562,14	47323,41
562,57	47485,02
562,99	47644,18
563,41	47782,27
563,84	47999,36
564,26	48162,72
564,68	48650,49
565,11	48438,91
565,53	48865,94
565,95	49181,56
566,37	49427,90
566,80	49555,93
567,22	49970,67
567,64	49902,21
568,07	50337,43
568,49	50369,26
568,91	50480,09
569,33	50641,12
569,76	50621,81
570,18	50548,32
570,60	50633,28
571,03	50651,07
571,45	50604,84
571,87	50351,59
572,29	50458,09
572,71	50165,99
573,14	50186,12
573,56	50162,01
573,98	50189,86
574,40	49905,84
574,83	50037,03
575,25	49599,23
575,67	49682,90
576,09	49514,27
576,51	49485,83
576,93	49320,59
577,36	49368,92
577,78	49194,78
578,20	49314,85
578,62	49058,45
579,04	49180,27
579,46	49207,54
579,89	49036,68
580,31	48964,01
580,73	48964,36
581,15	48835,39
581,57	48871,91
581,99	48862,90
582,41	48760,15
582,83	49026,50
583,25	48748,21
583,68	48654,71
584,10	48951,37
584,52	48864,42
584,94	48626,85
585,36	48470,74
585,78	48716,03
586,20	48604,27
586,62	48588,82
587,04	48525,51
587,46	48553,13
587,88	48487,83
588,30	48407,90
588,72	48174,19
589,14	48560,26
589,56	48359,45
589,98	48260,91
590,40	48371,62
590,82	48410,82
591,24	48253,54
591,66	48286,54
592,08	48255,64
592,50	48419,13
592,92	48220,54
593,34	48527,26
593,76	48498,12
594,18	48547,86
594,60	48499,53
595,02	48630,95
595,44	48554,06
595,86	48684,90
596,28	48934,05
596,70	48828,84
597,12	49172,20
597,54	49227,43
597,96	49488,52
598,37	49641,94
598,79	49848,26
599,21	50076,35
599,63	50157,91
600,05	50579,56
600,47	50658,44
600,89	50820,64
601,31	51052,94
601,73	51331,81
602,14	51403,08
602,56	51370,43
602,98	51965,16
603,40	51804,83
603,82	51869,20
604,24	51960,01
604,65	52178,85
605,07	52245,20
605,49	52052,11
605,91	52081,37
606,33	52216,42
606,75	52196,40
607,16	52029,06
607,58	51953,81
608,00	52032,33
608,42	51858,90
608,83	51761,30
609,25	51445,09
609,67	51515,19
610,09	51326,43
610,51	51161,42
610,92	51028,36
611,34	50774,29
611,76	50451,53
612,17	50459,61
612,59	50184,01
613,01	50212,68
613,43	49914,26
613,84	49648,15
614,26	49569,39
614,68	49419,59
615,10	49146,92
615,51	49021,12
615,93	49090,51
616,35	48906,55
616,76	48723,63
617,18	48558,63
617,60	48536,86
618,01	48371,50
618,43	48379,81
618,85	48195,73
619,26	48024,52
619,68	47947,04
620,09	47941,43
620,51	47826,51
620,93	47760,04
621,34	47681,63
621,76	47580,52
622,18	47530,55
622,59	47446,40
623,01	47462,67
623,42	47342,37
623,84	47391,75
624,26	47202,40
624,67	47127,27
625,09	46982,74
625,50	47047,34
625,92	46924,46
626,33	46819,02
626,75	46790,94
627,17	46710,66
627,58	46483,27
628,00	46774,79
628,41	46590,82
628,83	46383,57
629,24	46420,20
629,66	46524,93
630,07	46096,62
630,49	46240,33
630,90	45967,42
631,32	46232,02
631,73	46028,04
632,15	45985,09
632,56	45742,49
632,98	45883,75
633,39	45736,88
633,81	45720,26
634,22	45567,07
634,63	45782,40
635,05	45460,58
635,46	45396,91
635,88	45381,47
636,29	45257,42
636,71	45280,82
637,12	45069,82
637,54	45075,68
637,95	44898,26
638,36	45050,87
638,78	44755,37
639,19	44589,55
639,61	44610,73
640,02	44725,53
640,43	44549,17
640,85	44378,66
641,26	44510,55
641,67	44411,08
642,09	44253,80
642,50	44102,60
642,91	44254,85
643,33	43970,24
643,74	44180,07
644,15	43854,27
644,57	43940,05
644,98	43724,48
645,39	43631,33
645,81	43724,48
646,22	43441,40
646,63	43252,98
647,05	43535,49
647,46	43448,77
647,87	43311,26
648,29	43230,16
648,70	43178,32
649,11	42969,08
649,52	43012,38
649,94	42825,60
650,35	43071,36
650,76	42578,56
651,17	42814,83
651,59	42653,45
652,00	42441,75
652,41	42464,22
652,82	42380,78
653,24	42347,20
653,65	42256,03
654,06	42262,23
654,47	42185,00
654,88	41996,47
655,30	41964,52
655,71	41954,92
656,12	41800,45
656,53	41794,36
656,94	41562,06
657,35	41616,48
657,77	41571,78
658,18	41445,04
658,59	41366,75
659,00	41309,05
659,41	41304,60
659,82	41082,14
660,23	41186,64
660,65	41028,54
661,06	40912,68
661,47	40859,67
661,88	40877,46
662,29	40837,43
662,70	40821,17
663,11	40713,74
663,52	40591,91
663,93	40421,52
664,34	40399,05
664,76	40396,01
665,17	40437,79
665,58	40159,61
665,99	40080,39
666,40	39926,73
666,81	39950,14
667,22	40019,42
667,63	39938,67
668,04	39787,59
668,45	39723,57
668,86	39717,25
669,27	39528,84
669,68	39526,15
670,09	39219,65
670,50	39400,58
670,91	39180,45
671,32	39112,34
671,73	39082,62
672,14	38848,56
672,55	38877,70
672,96	38710,71
673,37	38596,72
673,78	38500,64
674,19	38397,07
674,60	38196,37
675,01	38214,04
675,42	38113,17
675,82	38175,54
676,23	37850,56
676,64	37821,42
677,05	37794,15
677,46	37658,75
677,87	37740,20
678,28	37735,87
678,69	37608,31
679,10	37543,83
679,51	37454,89
679,91	37517,62
680,32	37317,15
680,73	37349,92
681,14	37464,25
681,55	37290,23
681,96	37078,06
682,37	37117,85
682,78	37107,32
683,18	36959,17
683,59	37019,20
684,00	36797,55
684,41	36736,81
684,82	36630,79
685,22	36764,43
685,63	36522,30
686,04	36307,44
686,45	36457,94
686,86	36202,94
687,26	36386,67
687,67	36198,84
688,08	36129,68
688,49	35928,51
688,90	35883,57
689,30	35604,11
689,71	35579,07
690,12	35430,33
690,53	35516,93
690,93	35293,52
691,34	35193,23
691,75	35177,67
692,15	35142,91
692,56	35026,70
692,97	34834,54
693,38	34733,78
693,78	34723,84
694,19	34622,73
694,60	34438,76
695,00	34460,53
695,41	34451,63
695,82	34160,70
696,22	34309,80
696,63	34045,67
697,04	33962,81
697,44	33919,63
697,85	33893,77
698,26	33714,13
698,66	33655,50
699,07	33480,54
699,48	33481,25
699,88	33541,75
700,29	33286,86
700,69	33206,00
701,10	33022,74
701,51	33027,65
701,91	32904,19
702,32	32928,06
702,72	32818,06
703,13	32590,09
703,54	32524,20
703,94	32504,19
704,35	32312,03
704,75	32226,13
705,16	32085,47
705,56	32120,93
705,97	31940,47
706,37	31865,69
706,78	31851,65
707,18	31796,76
707,59	31727,01
707,99	31538,37
708,40	31405,31
708,81	31375,35
709,21	31251,89
709,62	31186,70
710,02	31145,86
710,42	31074,01
710,83	31023,22
711,23	30920,00
711,64	30906,89
712,04	30681,15
712,45	30731,35
712,85	30501,16
713,26	30613,50
713,66	30261,84
714,07	30297,77
714,47	30106,90
714,87	30103,39
715,28	29968,22
715,68	29988,00
716,09	29831,06
716,49	29820,65
716,90	29647,68
717,30	29607,43
717,70	29551,25
718,11	29405,79
718,51	29381,21
718,91	29189,87
719,32	29169,86
719,72	29042,89
720,13	29203,10
720,53	28891,10
720,93	28915,80
721,34	28788,36
721,74	28758,05
722,14	28579,35
722,55	28641,14
722,95	28433,30
723,35	28538,50
723,76	28373,61
724,16	28235,05
724,56	28312,29
724,97	28057,29
725,37	28153,02
725,77	27869,69
726,17	27862,56
726,58	27783,33
726,98	27718,38
727,38	27692,40
727,78	27516,51
728,19	27570,11
728,59	27471,92
728,99	27433,30
729,39	27223,47
729,80	27292,75
730,20	27139,92
730,60	26985,79
731,00	27078,24
731,41	27050,04
731,81	26835,76
732,21	26674,27
732,61	26785,09
733,01	26733,36
733,42	26636,12
733,82	26502,71
734,22	26474,15
734,62	26276,96
735,02	26351,86
735,42	26135,01
735,83	26153,73
736,23	26087,85
736,63	25961,92
737,03	25939,81
737,43	25921,20
737,83	25859,06
738,23	25692,29
738,64	25694,75
739,04	25587,09
739,44	25570,94
739,84	25413,42
740,24	25397,62
740,64	25293,47
741,04	25160,29
741,44	24989,90
741,84	25062,57
742,24	25004,18
742,64	25034,25
743,05	24896,86
743,45	24887,50
743,85	24885,63
744,25	24953,15
744,65	24854,03
745,05	24833,55
745,45	24954,21
745,85	24873,11
746,25	24919,22
746,65	24862,46
747,05	25034,72
747,45	24973,40
747,85	25074,39
748,25	25014,36
748,65	25197,04
749,05	25161,34
749,45	25242,33
749,85	25264,33
750,25	25231,91
750,65	25337,35
751,05	25236,36
751,45	25208,15
751,85	25167,08
752,25	25218,22
752,64	25137,12
753,04	24993,06
753,44	24900,26
753,84	24717,58
754,24	24700,26
754,64	24398,56
755,04	24411,32
755,44	24209,33
755,84	24039,29
756,24	23882,24
756,64	23717,70
757,03	23652,75
757,43	23507,05
757,83	23187,57
758,23	23168,49
758,63	23077,10
759,03	22773,06
759,43	22614,96
759,82	22571,07
760,22	22344,04
760,62	22255,33
761,02	22176,69
761,42	22000,92
761,82	21822,10
762,21	21693,84
762,61	21689,39
763,01	21485,65
763,41	21363,36
763,81	21305,08
764,20	21150,13
764,60	21070,67
765,00	20901,10
765,40	20884,48
765,79	20762,78
766,19	20601,40
766,59	20588,05
766,99	20471,96
767,38	20367,11
767,78	20325,68
768,18	20227,61
768,58	20099,35
768,97	20122,76
769,37	19971,67
769,77	19875,60
770,16	19851,72
770,56	19694,20
770,96	19603,86
771,36	19525,69
771,75	19467,52
772,15	19386,42
772,55	19304,50
772,94	19217,32
773,34	19151,55
773,74	19025,51
774,13	19039,32
774,53	18807,49
774,93	18766,77
775,32	18759,74
775,72	18693,98
776,11	18580,11
776,51	18519,72
776,91	18518,32
777,30	18395,91
777,70	18314,69
778,10	18227,98
778,49	18195,32
778,89	18129,09
779,28	18006,56
779,68	17973,21
780,07	17857,35
780,47	17757,53
780,87	17706,15
781,26	17612,77
781,66	17603,40
782,05	17496,79
782,45	17442,61
782,84	17361,27
783,24	17373,09
783,63	17195,33
784,03	17273,97
784,42	17090,59
784,82	17098,20
785,21	16962,21
785,61	16969,47
786,00	16820,49
786,40	16863,33
786,79	16692,58
787,19	16701,83
787,58	16537,06
787,98	16475,50
788,37	16503,12
788,77	16457,94
789,16	16353,56
789,56	16350,28
789,95	16210,32
790,35	16181,88
790,74	16091,77
791,13	16026,82
791,53	15974,98
791,92	15932,38
792,32	15889,55
792,71	15714,12
793,10	15764,68
793,50	15668,25
793,89	15666,84
794,29	15605,40
794,68	15528,64
795,07	15502,19
795,47	15413,60
795,86	15355,79
796,26	15283,00
796,65	15197,68
797,04	15138,35
797,44	15110,97
797,83	15058,54
798,22	15037,47
798,62	14978,96
799,01	14928,76
799,40	14892,48
799,80	14830,34
800,19	14761,52
800,58	14676,56
800,97	14615,12
801,37	14577,91
801,76	14576,04
802,15	14465,56
802,55	14420,27
802,94	14393,48
803,33	14395,11
803,72	14238,77
804,12	14109,10
804,51	14195,70
804,90	14167,85
805,29	14067,91
805,69	13953,34
806,08	13904,19
806,47	13857,02
806,86	13869,78
807,26	13817,59
807,65	13723,61
808,04	13674,46
808,43	13665,92
808,82	13629,29
809,22	13599,57
809,61	13523,03
810,00	13524,67
810,39	13409,28
810,78	13316,71
811,17	13308,40
811,57	13268,73
811,96	13312,26
812,35	13170,31
812,74	13162,70
813,13	13118,70
813,52	13073,30
813,91	13026,02
814,30	12942,11
814,70	12959,20
815,09	12957,91
815,48	12851,65
815,87	12859,84
816,26	12798,05
816,65	12807,29
817,04	12657,85
817,43	12597,23
817,82	12662,53
818,21	12566,45
818,60	12519,76
819,00	12472,71
819,39	12381,55
819,78	12372,07
820,17	12352,53
820,56	12310,05
820,95	12226,72
821,34	12210,34
821,73	12145,04
822,12	12119,18
822,51	12095,65
822,90	12081,26
823,29	12063,71
823,68	11960,61
824,07	11960,96
824,46	11887,46
824,85	11854,11
825,24	11806,72
825,63	11789,98
826,02	11774,53
826,41	11698,11
826,80	11709,58
827,18	11559,20
827,57	11567,16
827,96	11540,95
828,35	11491,09
828,74	11516,49
829,13	11401,80
829,52	11337,56
829,91	11312,39
830,30	11294,72
830,69	11241,01
831,08	11208,12
831,47	11237,50
831,85	11235,74
832,24	11093,91
832,63	11085,71
833,02	11000,75
833,41	10950,90
833,80	10984,13
834,19	10941,89
834,57	10898,47
834,96	10875,77
835,35	10809,18
835,74	10770,68
836,13	10746,69
836,52	10722,11
836,90	10630,95
837,29	10653,53
837,68	10552,42
838,07	10526,56
838,46	10489,11
838,84	10402,63
839,23	10425,57
839,62	10450,37
840,01	10313,92
840,40	10277,88
840,78	10296,48
841,17	10191,28
841,56	10136,16
841,95	10133,12
842,33	10128,67
842,72	10101,64
843,11	10019,13
843,50	9959,45
843,88	9994,79
844,27	9934,17
844,66	9887,48
845,04	9916,62
845,43	9841,72
845,82	9811,53
846,20	9763,31
846,59	9722,59
846,98	9712,87
847,37	9634,35
847,75	9596,08
848,14	9586,95
848,53	9533,24
848,91	9517,79
849,30	9460,56
849,68	9520,36
850,07	9406,03
850,46	9387,89
850,84	9365,54
851,23	9322,70
851,62	9255,18
852,00	9213,99
852,39	9229,55
852,77	9158,52
853,16	9142,72
853,55	9146,81
853,93	9049,21
854,32	9038,10
854,70	8984,38
855,09	8969,64
855,47	8945,18
855,86	8934,76
856,25	8858,11
856,63	8814,22
857,02	8809,54
857,40	8823,94
857,79	8754,31
858,17	8687,13
858,56	8695,44
858,94	8634,82
859,33	8595,03
859,71	8556,76
860,10	8534,06
860,48	8531,84
860,87	8476,25
861,25	8460,80
861,64	8483,86
862,02	8417,62
862,41	8349,39
862,79	8317,33
863,18	8281,99
863,56	8266,77
863,95	8206,15
864,33	8237,05
864,71	8163,91
865,10	8136,29
865,48	8073,91
865,87	8094,98
866,25	8075,32
866,64	8039,97
867,02	7959,46
867,40	7944,36
867,79	7926,34
868,17	7892,87
868,56	7843,02
868,94	7835,18
869,32	7783,92
869,71	7747,88
870,09	7732,90
870,47	7716,16
870,86	7668,06
871,24	7698,61
871,62	7637,99
872,01	7599,02
872,39	7586,38
872,77	7573,04
873,16	7500,60
873,54	7513,24
873,92	7425,58
874,31	7421,25
874,69	7386,38
875,07	7362,39
875,46	7304,11
875,84	7359,70
876,22	7324,82
876,60	7275,91
876,99	7216,81
877,37	7185,80
877,75	7168,24
878,14	7166,14
878,52	7105,16
878,90	7112,07
879,28	7031,67
879,66	7030,62
880,05	7021,84
880,43	6989,78
880,81	6979,36
881,19	6877,31
881,58	6901,89
881,96	6889,95
882,34	6828,75
882,72	6781,23
883,10	6755,02
883,49	6713,12
883,87	6699,67
884,25	6693,93
884,63	6629,22
885,01	6607,45
885,39	6588,02
885,78	6536,65
886,16	6537,58
886,54	6499,55
886,92	6498,61
887,30	6505,28
887,68	6515,47
888,06	6494,17
888,44	6523,42
888,83	6530,80
889,21	6527,29
889,59	6540,51
889,97	6571,87
890,35	6569,65
890,73	6583,34
891,11	6689,84
891,49	6682,35
891,87	6707,04
892,25	6760,75
892,63	6798,32
893,01	6859,53
893,39	6902,24
893,77	6979,13
894,16	6988,25
894,54	7070,17
894,92	7137,70
895,30	7201,95
895,68	7225,70
896,06	7270,17
896,44	7306,45
896,82	7391,06
897,20	7375,85
897,58	7377,25
897,96	7424,65
898,34	7396,91
898,72	7375,96
899,10	7363,09
899,47	7350,45
899,85	7328,57
900,23	7274,97
900,61	7305,28
900,99	7199,14
901,37	7179,48
901,75	7072,28
902,13	6994,34
902,51	6928,45
902,89	6873,33
903,27	6813,42
903,65	6729,51
904,03	6650,75
904,40	6619,04
904,78	6541,91
905,16	6452,04
905,54	6390,48
905,92	6361,46
906,30	6303,41
906,68	6191,89
907,06	6210,96
907,43	6139,69
907,81	6053,21
908,19	5977,14
908,57	5915,82
908,95	5922,73
909,33	5867,72
909,70	5840,81
910,08	5768,60
910,46	5713,25
910,84	5702,83
911,22	5687,74
911,59	5614,71
911,97	5585,22
912,35	5577,26
912,73	5528,93
913,11	5517,70
913,48	5442,68
913,86	5403,95
914,24	5382,76
914,62	5366,15
914,99	5341,92
915,37	5276,27
915,75	5290,90
916,13	5254,39
916,50	5218,93
916,88	5198,91
917,26	5196,81
917,63	5150,93
918,01	5132,21
918,39	5090,31
918,77	5048,30
919,14	5063,40
919,52	5032,27
919,90	5022,56
920,27	4958,78
920,65	4973,87
921,03	4934,20
921,40	4927,41
921,78	4889,61
922,16	4877,21
922,53	4869,60
922,91	4832,74
923,28	4825,72
923,66	4787,80
924,04	4761,70
924,41	4749,18
924,79	4725,07
925,17	4740,76
925,54	4686,45
925,92	4677,91
926,29	4676,86
926,67	4650,64
927,05	4643,51
927,42	4613,66
927,80	4613,20
928,17	4578,09
928,55	4578,32
928,92	4559,71
929,30	4538,42
929,67	4503,66
930,05	4514,89
930,43	4481,07
930,80	4461,30
931,18	4433,44
931,55	4429,00
931,93	4415,77
932,30	4412,03
932,68	4374,93
933,05	4359,72
933,43	4374,11
933,80	4331,16
934,18	4332,21
934,55	4336,54
934,92	4314,08
935,30	4272,18
935,67	4262,35
936,05	4248,07
936,42	4218,00
936,80	4227,71
937,17	4209,57
937,55	4178,91
937,92	4190,50
938,29	4150,59
938,67	4158,43
939,04	4141,11
939,42	4132,92
939,79	4088,10
940,16	4081,31
940,54	4076,86
940,91	4068,09
941,29	4063,99
941,66	4042,34
942,03	4045,15
942,41	4027,94
942,78	3993,77
943,15	3981,49
943,53	3958,67
943,90	3977,04
944,27	3926,95
944,65	3935,73
945,02	3930,23
945,39	3935,26
945,77	3887,63
946,14	3891,14
946,51	3893,01
946,89	3893,13
947,26	3876,86
947,63	3880,49
948,01	3860,83
948,38	3832,98
948,75	3829,94
949,12	3822,68
949,50	3800,56
949,87	3785,23
950,24	3786,28
950,61	3797,99
950,99	3770,49
951,36	3770,13
951,73	3735,50
952,10	3737,72
952,48	3722,15
952,85	3730,81
953,22	3693,83
953,59	3703,08
953,96	3687,40
954,34	3654,51
954,71	3663,52
955,08	3665,16
955,45	3654,51
955,82	3650,65
956,20	3622,45
956,57	3623,97
956,94	3620,11
957,31	3597,87
957,68	3605,48
958,05	3596,00
958,42	3569,67
958,80	3562,53
959,17	3548,02
959,54	3550,12
959,91	3530,00
960,28	3523,68
960,65	3530,23
961,02	3504,72
961,39	3512,79
961,76	3508,11
962,14	3472,54
962,51	3475,93
962,88	3446,91
963,25	3467,97
963,62	3431,69
963,99	3441,06
964,36	3426,90
964,73	3407,94
965,10	3421,98
965,47	3398,69
965,84	3413,20
966,21	3370,37
966,58	3399,75
966,95	3374,94
967,32	3374,12
967,69	3357,62
968,06	3379,97
968,43	3333,63
968,80	3337,14
969,17	3319,82
969,54	3315,72
969,91	3309,87
970,28	3295,12
970,65	3310,34
971,02	3277,80
971,39	3292,55
971,76	3269,03
972,13	3272,77
972,50	3283,19
972,87	3251,82
973,24	3256,04
973,61	3249,72
973,98	3238,01
974,34	3231,69
974,71	3232,86
975,08	3206,42
975,45	3226,90
975,82	3218,24
976,19	3198,93
976,56	3188,75
976,93	3206,89
977,30	3182,66
977,66	3190,97
978,03	3167,10
978,40	3167,10
978,77	3184,30
979,14	3130,00
979,51	3161,83
979,88	3139,01
980,24	3128,95
980,61	3117,13
980,98	3145,09
981,35	3117,24
981,72	3126,72
982,08	3114,55
982,45	3099,81
982,82	3088,10
983,19	3085,06
983,56	3084,94
983,92	3072,30
984,29	3070,08
984,66	3075,70
985,03	3057,09
985,39	3045,39
985,76	3074,64
986,13	3058,61
986,50	3025,03
986,86	3036,73
987,23	3020,81
987,60	3017,54
987,97	3018,47
988,33	3012,15
988,70	3014,84
989,07	3017,89
989,43	2998,46
989,80	2981,61
990,17	2990,62
990,53	3002,32
990,90	2986,99
991,27	2994,72
991,63	2952,00
992,00	2967,21
992,37	2950,25
992,73	2967,92
993,10	2968,97
993,47	2958,55
993,83	2954,34
994,20	2929,53
994,57	2953,29
994,93	2927,78
995,30	2932,34
995,66	2939,24
996,03	2922,16
996,40	2922,39
996,76	2914,32
997,13	2908,70
997,49	2915,02
997,86	2926,84
998,23	2911,74
998,59	2891,15
998,96	2884,01
999,32	2884,36
999,69	2872,07
1000,05	2876,64
1000,42	2873,01
1000,78	2860,60
1001,15	2888,34
1001,51	2872,19
1001,88	2865,52
1002,24	2869,15
1002,61	2861,89
1002,97	2859,55
1003,34	2856,16
1003,70	2841,41
1004,07	2863,41
1004,43	2839,42
1004,80	2847,38
1005,16	2841,29
1005,53	2856,97
1005,89	2813,68
1006,26	2825,96
1006,62	2802,56
1006,99	2845,39
1007,35	2829,47
1007,72	2820,23
1008,08	2812,74
1008,44	2803,84
1008,81	2808,41
1009,17	2816,37
1009,54	2823,27
1009,90	2800,45
1010,26	2790,39
1010,63	2802,09
1010,99	2791,44
1011,36	2775,99
1011,72	2788,63
1012,08	2786,29
1012,45	2782,55
1012,81	2792,61
1013,17	2768,03
1013,54	2786,17
1013,90	2772,13
1014,26	2767,10
1014,63	2770,38
1014,99	2753,06
1015,35	2773,77
1015,72	2773,18
1016,08	2756,33
1016,44	2764,76
1016,81	2762,42
1017,17	2738,31
1017,53	2757,62
1017,90	2751,53
1018,26	2748,96
1018,62	2747,20
1018,98	2739,01
1019,35	2750,25
1019,71	2725,20
1020,07	2749,90
1020,43	2728,36
1020,80	2715,72
1021,16	2718,06
1021,52	2704,37
1021,88	2724,03
1022,25	2710,34
1022,61	2724,73
1022,97	2711,63
1023,33	2727,31
1023,70	2718,53
1024,06	2700,74
1024,42	2707,18
1024,78	2701,21
1025,14	2720,87
1025,50	2713,50
1025,87	2710,93
1026,23	2715,84
1026,59	2700,63
1026,95	2713,50
1027,31	2683,54
1027,67	2685,06
1028,04	2682,14
1028,40	2684,01
1028,76	2689,86
1029,12	2693,49
1029,48	2681,90
1029,84	2688,69
1030,20	2684,13
1030,56	2690,91
1030,92	2696,30
1031,29	2696,18
1031,65	2682,61
1032,01	2684,24
1032,37	2665,40
1032,73	2687,40
1033,09	2666,34
1033,45	2681,79
1033,81	2676,05
1034,17	2693,37
1034,53	2657,44
1034,89	2680,38
1035,25	2680,38
1035,61	2680,38
>>>>>End Processed Spectral Data<<<<<
